Dynamic Sitebased Spectral
X;Y;
50.000;50.000;-40.495;-39.924;-39.353;-38.782;-38.211;-37.640;-37.069;-36.498;-35.927;-35.356;-34.785;-34.215;-33.644;-33.073;-32.503;-31.932;-31.362;-30.791;-30.221;-29.651;-29.080;-28.510;-27.940;-27.370;-26.800;-26.230;-25.660;-25.090;-24.520;-23.950;-23.380;-22.810;-22.241;-21.671;-21.101;-20.532;-19.962;-19.393;-18.823;-18.254;-17.685;-17.116;-16.546;-15.977;-15.408;-14.839;-14.270;-13.701;-13.132;-12.563;-11.994;-11.426;-10.857;-10.288;-9.719;-9.151;-8.582;-8.014;-7.445;-6.877;-6.309;-5.740;-5.172;-4.604;-4.036;-3.468;-2.900;-2.332;-1.764;-1.196;-0.628;-0.060;0.508;1.076;1.643;2.211;2.778;3.346;3.913;4.481;5.048;5.616;6.183;6.750;7.317;7.884;8.452;9.019;9.586;10.153;10.719;11.286;11.853;12.420;12.987;13.553;14.120;14.686;15.253;15.819;16.386;16.952;17.519;18.085;18.651;19.217;19.783;20.349;20.915;21.481;22.047;22.613;23.179;23.745;24.311;24.876;25.442;26.008;26.573;27.139;27.704;28.269;28.835;29.400;29.965;30.531;31.096;31.661;32.226;32.791;33.356;33.921;34.486;35.051;35.615;36.180;36.745;37.309;37.874;38.439;39.003;39.567;40.132;40.696;41.261;41.825;42.389;42.953;43.517;44.081;44.645;45.209;45.773;46.337;46.901;47.465;48.028;48.592;49.156;49.719;50.283;50.846;51.410;51.973;52.536;53.100;53.663;54.226;54.789;55.352;55.915;56.478;57.041;57.604;58.167;58.730;59.293;59.855;60.418;60.981;61.543;62.106;62.668;63.231;63.793;64.355;64.918;65.480;66.042;66.604;67.166;67.728;68.290;68.852;69.414;69.976;70.538;71.099;71.661;72.223;72.784;73.346;73.907;74.469;75.030;75.592;76.153;76.714;77.275;77.837;78.398;78.959;79.520;80.081;80.642;81.203;81.763;82.324;82.885;83.446;84.006;84.567;85.127;85.688;86.248;86.809;87.369;87.929;88.490;89.050;89.610;90.170;90.730;91.290;91.850;92.410;92.970;93.530;94.090;94.649;95.209;95.769;96.328;96.888;97.447;98.007;98.566;99.125;99.685;100.244;100.803;101.362;101.921;102.480;103.039;103.598;104.157;104.716;105.275;105.834;106.393;106.951;107.510;108.068;108.627;109.185;109.744;110.302;110.861;111.419;111.977;112.535;113.093;113.651;114.210;114.768;115.325;115.883;116.441;116.999;117.557;118.115;118.672;119.230;119.787;120.345;120.902;121.460;122.017;122.574;123.132;123.689;124.246;124.803;125.360;125.917;126.474;127.031;127.588;128.145;128.702;129.259;129.815;130.372;130.929;131.485;132.042;132.598;133.155;133.711;134.267;134.824;135.380;135.936;136.492;137.048;137.604;138.160;138.716;139.272;139.828;140.384;140.939;141.495;142.051;142.606;143.162;143.717;144.273;144.828;145.384;145.939;146.494;147.049;147.605;148.160;148.715;149.270;149.825;150.380;150.935;151.489;152.044;152.599;153.154;153.708;154.263;154.817;155.372;155.926;156.481;157.035;157.590;158.144;158.698;159.252;159.806;160.360;160.914;161.468;162.022;162.576;163.130;163.684;164.237;164.791;165.345;165.898;166.452;167.005;167.559;168.112;168.666;169.219;169.772;170.325;170.879;171.432;171.985;172.538;173.091;173.644;174.197;174.749;175.302;175.855;176.408;176.960;177.513;178.065;178.618;179.170;179.723;180.275;180.827;181.380;181.932;182.484;183.036;183.588;184.140;184.692;185.244;185.796;186.348;186.899;187.451;188.003;188.554;189.106;189.658;190.209;190.761;191.312;191.863;192.415;192.966;193.517;194.068;194.619;195.170;195.721;196.272;196.823;197.374;197.925;198.476;199.026;199.577;200.128;200.678;201.229;201.779;202.330;202.880;203.430;203.981;204.531;205.081;205.631;206.181;206.731;207.281;207.831;208.381;208.931;209.481;210.031;210.581;211.130;211.680;212.229;212.779;213.328;213.878;214.427;214.977;215.526;216.075;216.624;217.173;217.723;218.272;218.821;219.370;219.918;220.467;221.016;221.565;222.114;222.662;223.211;223.760;224.308;224.857;225.405;225.953;226.502;227.050;227.598;228.146;228.695;229.243;229.791;230.339;230.887;231.435;231.982;232.530;233.078;233.626;234.173;234.721;235.269;235.816;236.364;236.911;237.458;238.006;238.553;239.100;239.648;240.195;240.742;241.289;241.836;242.383;242.930;243.477;244.023;244.570;245.117;245.663;246.210;246.757;247.303;247.850;248.396;248.943;249.489;250.035;250.581;251.128;251.674;252.220;252.766;253.312;253.858;254.404;254.950;255.495;256.041;256.587;257.133;257.678;258.224;258.769;259.315;259.860;260.406;260.951;261.496;262.041;262.587;263.132;263.677;264.222;264.767;265.312;265.857;266.402;266.947;267.491;268.036;268.581;269.125;269.670;270.214;270.759;271.303;271.848;272.392;272.936;273.481;274.025;274.569;275.113;275.657;276.201;276.745;277.289;277.833;278.377;278.920;279.464;280.008;280.551;281.095;281.639;282.182;282.725;283.269;283.812;284.355;284.899;285.442;285.985;286.528;287.071;287.614;288.157;288.700;289.243;289.786;290.329;290.871;291.414;291.957;292.499;293.042;293.584;294.127;294.669;295.211;295.754;296.296;296.838;297.380;297.922;298.464;299.006;299.548;300.090;300.632;301.174;301.716;302.257;302.799;303.341;303.882;304.424;304.965;305.507;306.048;306.590;307.131;307.672;308.213;308.755;309.296;309.837;310.378;310.919;311.460;312.000;312.541;313.082;313.623;314.163;314.704;315.245;315.785;316.326;316.866;317.407;317.947;318.487;319.027;319.568;320.108;320.648;321.188;321.728;322.268;322.808;323.348;323.888;324.427;324.967;325.507;326.046;326.586;327.126;327.665;328.205;328.744;329.283;329.823;330.362;330.901;331.440;331.979;332.518;333.058;333.596;334.135;334.674;335.213;335.752;336.291;336.829;337.368;337.907;338.445;338.984;339.522;340.061;340.599;341.137;341.675;342.214;342.752;343.290;343.828;344.366;344.904;345.442;345.980;346.518;347.056;347.593;348.131;348.669;349.206;349.744;350.281;350.819;351.356;351.894;352.431;352.968;353.505;354.043;354.580;355.117;355.654;356.191;356.728;357.265;357.801;358.338;358.875;359.412;359.948;360.485;361.022;361.558;362.095;362.631;363.167;363.704;364.240;364.776;365.312;365.848;366.385;366.921;367.457;367.993;368.528;369.064;369.600;370.136;370.672;371.207;371.743;372.278;372.814;373.349;373.885;374.420;374.956;375.491;376.026;376.561;377.096;377.632;378.167;378.702;379.237;379.771;380.306;380.841;381.376;381.911;382.445;382.980;383.515;384.049;384.584;385.118;385.652;386.187;386.721;387.255;387.789;388.324;388.858;389.392;389.926;390.460;390.994;391.528;392.061;392.595;393.129;393.663;394.196;394.730;395.263;395.797;396.330;396.864;397.397;397.930;398.464;398.997;399.530;400.063;400.596;401.129;401.662;402.195;402.728;403.261;403.794;404.326;404.859;405.392;405.924;406.457;406.989;407.522;408.054;408.586;409.119;409.651;410.183;410.715;411.248;411.780;412.312;412.844;413.376;413.908;414.439;414.971;415.503;416.035;416.566;417.098;417.629;418.161;418.692;419.224;419.755;420.287;420.818;421.349;421.880;422.411;422.942;423.473;424.004;424.535;425.066;425.597;426.128;426.659;427.189;427.720;428.251;428.781;429.312;429.842;430.373;430.903;431.433;431.964;432.494;433.024;433.554;434.084;434.614;435.145;435.674;436.204;436.734;437.264;437.794;438.324;438.853;439.383;439.912;440.442;440.971;441.501;442.030;442.560;443.089;443.618;444.147;444.677;445.206;445.735;446.264;446.793;447.322;447.851;448.379;448.908;449.437;449.966;450.494;451.023;451.551;452.080;452.608;453.137;453.665;454.193;454.722;455.250;455.778;456.306;456.834;457.362;457.890;458.418;458.946;459.474;460.002;460.530;461.057;461.585;462.112;462.640;463.168;463.695;464.222;464.750;465.277;465.804;466.332;466.859;467.386;467.913;468.440;468.967;469.494;470.021;470.548;471.075;471.601;472.128;472.655;473.181;473.708;474.235;474.761;475.287;475.814;476.340;476.866;477.393;477.919;478.445;478.971;479.497;480.023;480.549;481.075;481.601;482.127;482.653;483.178;483.704;484.230;484.755;485.281;485.806;486.332;486.857;487.383;487.908;488.433;488.958;489.483;490.009;490.534;491.059;491.584;492.109;492.633;493.158;493.683;494.208;494.733;495.257;495.782;496.306;496.831;497.355;497.880;498.404;498.928;499.453;499.977;500.501;501.025;501.549;502.073;502.597;503.121;503.645;504.169;504.693;505.217;505.740;506.264;506.788;507.311;507.835;508.358;508.882;509.405;509.928;510.452;510.975;511.498;512.021;512.544;513.068;513.591;514.114;514.636;515.159;515.682;516.205;516.728;517.250;517.773;518.296;518.818;519.341;519.863;520.385;520.908;521.430;521.952;522.475;522.997;523.519;524.041;524.563;525.085;525.607;526.129;526.651;527.172;527.694;528.216;528.738;529.259;529.781;530.302;530.824;531.345;531.867;532.388;532.909;533.430;533.952;534.473;534.994;535.515;536.036;536.557;537.078;537.599;538.119;538.640;539.161;539.682;540.202;540.723;541.243;541.764;542.284;542.805;543.325;543.845;544.366;544.886;545.406;545.926;546.446;546.966;547.486;548.006;548.526;549.046;549.566;550.085;550.605;551.125;551.644;552.164;552.683;553.203;553.722;554.242;554.761;555.280;555.799;556.319;556.838;557.357;557.876;558.395;558.914;559.433;559.951;560.470;560.989;561.508;562.026;562.545;563.064;563.582;564.101;564.619;565.137;565.656;566.174;566.692;567.211;567.729;568.247;568.765;569.283;569.801;570.319;570.837;571.354;571.872;572.390;572.908;573.425;573.943;574.460;574.978;575.495;576.013;576.530;577.048;577.565;578.082;578.599;579.116;579.633;580.150;580.667;581.184;581.701;582.218;582.735;583.252;583.768;584.285;584.802;585.318;585.835;586.351;586.868;587.384;587.900;588.417;588.933;589.449;589.965;590.481;590.997;591.513;592.029;592.545;593.061;593.577;594.093;594.609;595.124;595.640;596.155;596.671;597.186;597.702;598.217;598.733;599.248;599.763;600.278;600.794;601.309;601.824;602.339;602.854;603.369;603.884;604.399;604.913;605.428;605.943;606.457;606.972;607.487;608.001;608.516;609.030;609.544;610.059;610.573;611.087;611.602;612.116;612.630;613.144;613.658;614.172;614.686;615.200;615.713;616.227;616.741;617.255;617.768;618.282;618.795;619.309;619.822;620.336;620.849;621.362;621.876;622.389;622.902;623.415;623.928;624.441;624.954;625.467;625.980;626.493;627.006;627.519;628.031;628.544;629.057;629.569;630.082;630.594;631.107;631.619;632.131;632.644;633.156;633.668;634.180;634.692;635.204;635.716;636.228;636.740;637.252;637.764;638.276;638.787;639.299;639.811;640.322;640.834;641.345;641.857;642.368;642.880;643.391;643.902;644.413;644.925;645.436;645.947;646.458;646.969;647.480;647.991;648.502;649.012;649.523;650.034;650.545;651.055;651.566;652.076;652.587;653.097;653.608;654.118;654.628;655.138;655.649;656.159;656.669;657.179;657.689;658.199;658.709;659.219;659.729;660.238;660.748;661.258;661.767;662.277;662.787;663.296;663.806;664.315;664.824;665.334;665.843;666.352;666.861;667.371;667.880;668.389;668.898;669.407;669.916;670.424;670.933;671.442;671.951;672.459;672.968;673.477;673.985;674.494;675.002;675.510;676.019;676.527;677.035;677.544;678.052;678.560;679.068;679.576;680.084;680.592;681.100;681.608;682.115;682.623;683.131;683.639;684.146;684.654;685.161;685.669;686.176;686.683;687.191;687.698;688.205;688.713;689.220;689.727;690.234;690.741;691.248;691.755;692.262;692.768;693.275;693.782;694.289;694.795;695.302;695.808;696.315;696.821;697.328;697.834;698.340;698.847;699.353;699.859;700.365;700.871;701.377;701.883;702.389;702.895;703.401;703.907;704.413;704.918;705.424;705.930;706.435;706.941;707.446;707.952;708.457;708.962;709.468;709.973;710.478;710.983;711.488;711.994;712.499;713.004;713.508;714.013;714.518;715.023;715.528;716.032;716.537;717.042;717.546;718.051;718.555;719.060;719.564;720.068;720.573;721.077;721.581;722.085;722.589;723.093;723.597;724.101;724.605;725.109;725.613;726.117;726.620;727.124;727.628;728.131;728.635;729.138;729.642;730.145;730.649;731.152;731.655;732.159;732.662;733.165;733.668;734.171;734.674;735.177;735.680;736.183;736.685;737.188;737.691;738.194;738.696;739.199;739.701;740.204;740.706;741.209;741.711;742.213;742.716;743.218;743.720;744.222;744.724;745.226;745.728;746.230;746.732;747.234;747.736;748.237;748.739;749.241;749.742;750.244;750.745;751.247;751.748;752.250;752.751;753.252;753.754;754.255;754.756;755.257;755.758;756.259;756.760;757.261;757.762;758.263;758.764;759.264;759.765;760.266;760.766;761.267;761.767;762.268;762.768;763.268;763.769;764.269;764.769;765.270;765.770;766.270;766.770;767.270;767.770;768.270;768.770;769.269;769.769;770.269;770.769;771.268;771.768;772.267;772.767;773.266;773.766;774.265;774.764;775.264;775.763;776.262;776.761;777.260;777.759;778.258;778.757;779.256;779.755;780.254;780.753;781.251;781.750;782.249;782.747;783.246;783.744;784.243;784.741;785.239;785.738;786.236;786.734;787.232;787.730;788.228;788.726;789.224;789.722;790.220;790.718;791.216;791.714;792.211;792.709;793.207;793.704;794.202;794.699;795.197;795.694;796.191;796.689;797.186;797.683;798.180;798.677;799.174;799.671;800.168;800.665;801.162;801.659;802.156;802.653;803.149;803.646;804.143;804.639;805.136;805.632;806.129;806.625;807.121;807.618;808.114;808.610;809.106;809.602;810.098;810.594;811.090;811.586;812.082;812.578;813.074;813.569;814.065;814.561;815.056;815.552;816.047;816.543;817.038;817.534;818.029;818.524;819.019;819.515;820.010;820.505;821.000;821.495;821.990;822.485;822.980;823.474;823.969;824.464;824.959;825.453;825.948;826.442;826.937;827.431;827.926;828.420;828.914;829.409;829.903;830.397;830.891;831.385;831.879;832.373;832.867;833.361;833.855;834.349;834.843;835.336;835.830;836.324;836.817;837.311;837.804;838.298;838.791;839.285;839.778;840.271;840.764;841.258;841.751;842.244;842.737;843.230;843.723;844.216;844.708;845.201;845.694;846.187;846.679;847.172;847.665;848.157;848.650;849.142;849.634;850.127;850.619;851.111;851.604;852.096;852.588;853.080;853.572;854.064;854.556;855.048;855.540;856.031;856.523;857.015;857.507;857.998;858.490;858.981;859.473;859.964;860.456;860.947;861.438;861.930;862.421;862.912;863.403;863.894;864.385;864.876;865.367;865.858;866.349;866.840;867.330;867.821;868.312;868.802;869.293;869.783;870.274;870.764;871.255;871.745;872.235;872.726;873.216;873.706;874.196;874.686;875.176;875.666;876.156;876.646;877.136;877.626;878.115;878.605;879.095;879.584;880.074;880.563;881.053;881.542;882.032;882.521;883.010;883.500;883.989;884.478;884.967;885.456;885.945;886.434;886.923;887.412;887.901;888.390;888.878;889.367;889.856;890.344;890.833;891.321;891.810;892.298;892.787;893.275;893.763;894.252;894.740;895.228;895.716;896.204;896.692;897.180;897.668;898.156;898.644;899.132;899.619;900.107;900.595;901.082;901.570;902.057;902.545;903.032;903.520;904.007;904.494;904.981;905.469;905.956;906.443;906.930;907.417;907.904;908.391;908.878;909.365;909.851;910.338;910.825;911.312;911.798;912.285;912.771;913.258;913.744;914.231;914.717;915.203;915.689;916.176;916.662;917.148;917.634;918.120;918.606;919.092;919.578;920.064;920.549;921.035;921.521;922.006;922.492;922.978;923.463;923.949;924.434;924.919;925.405;925.890;926.375;926.861;927.346;927.831;928.316;928.801;929.286;929.771;930.256;930.741;931.225;931.710;932.195;932.679;933.164;933.649;934.133;934.618;935.102;935.586;936.071;936.555;937.039;937.524;938.008;938.492;938.976;939.460;939.944;940.428;940.912;941.396;941.879;942.363;942.847;943.330;943.814;944.298;944.781;945.265;945.748;946.231;946.715;947.198;947.681;948.165;948.648;949.131;949.614;950.097;950.580;951.063;951.546;952.029;952.511;952.994;953.477;953.959;954.442;954.925;955.407;955.890;956.372;956.854;957.337;957.819;958.301;958.784;959.266;959.748;960.230;960.712;961.194;961.676;962.158;962.640;963.121;963.603;964.085;964.567;965.048;965.530;966.011;966.493;966.974;967.456;967.937;968.418;968.900;969.381;969.862;970.343;970.824;971.305;971.786;972.267;972.748;973.229;973.710;974.190;974.671;975.152;975.632;976.113;976.594;977.074;977.555;978.035;978.515;978.996;979.476;979.956;980.436;980.916;981.396;981.876;982.356;982.836;983.316;983.796;984.276;984.756;985.235;985.715;986.195;986.674;987.154;987.633;988.113;988.592;989.072;989.551;990.030;990.509;990.989;991.468;991.947;992.426;992.905;993.384;993.863;994.342;994.820;995.299;995.778;996.257;996.735;997.214;997.692;998.171;998.649;999.128;999.606;1000.085;1000.563;1001.041;1001.519;1001.997;1002.475;1002.953;1003.432;1003.909;1004.387;1004.865;1005.343;1005.821;1006.299;1006.776;1007.254;1007.732;1008.209;1008.687;1009.164;1009.641;1010.119;1010.596;1011.073;1011.551;1012.028;1012.505;1012.982;1013.459;1013.936;1014.413;1014.890;1015.367;1015.844;1016.321;1016.797;1017.274;1017.751;1018.227;1018.704;1019.180;1019.657;1020.133;1020.610;1021.086;1021.562;1022.039;1022.515;1022.991;1023.467;1023.943;1024.419;1024.895;1025.371;1025.847;1026.323;1026.799;1027.274;1027.750;1028.226;1028.701;1029.177;1029.653;
50.000;50.000;-11.000;87.000;29.000;95.000;121.000;108.000;61.000;72.000;18.000;38.000;111.000;-4.000;99.000;90.000;66.000;42.000;49.000;70.000;90.000;90.000;110.000;-36.000;20.000;81.000;103.000;69.000;85.000;121.000;115.000;51.000;94.000;26.000;128.000;43.000;68.000;131.000;112.000;76.000;113.000;4.000;96.000;71.000;121.000;145.000;90.000;32.000;31.000;77.000;154.000;52.000;63.000;104.000;116.000;87.000;97.000;30.000;64.000;79.000;136.000;155.000;109.000;156.000;148.000;96.000;114.000;80.000;82.000;86.000;50.000;69.000;76.000;60.000;85.000;63.000;150.000;121.000;89.000;105.000;73.000;143.000;58.000;147.000;161.000;100.000;102.000;32.000;22.000;114.000;83.000;88.000;45.000;107.000;57.000;111.000;69.000;153.000;79.000;173.000;94.000;78.000;104.000;112.000;112.000;71.000;108.000;94.000;86.000;128.000;148.000;184.000;335.000;472.000;462.000;485.000;427.000;276.000;99.000;139.000;110.000;53.000;200.000;1.000;17.000;150.000;153.000;77.000;65.000;67.000;122.000;95.000;63.000;54.000;143.000;70.000;103.000;105.000;62.000;76.000;85.000;87.000;121.000;125.000;36.000;115.000;62.000;155.000;6.000;114.000;70.000;74.000;154.000;81.000;115.000;148.000;12.000;62.000;119.000;95.000;104.000;108.000;113.000;13.000;25.000;20.000;160.000;22.000;155.000;92.000;108.000;38.000;166.000;9.000;23.000;48.000;110.000;141.000;68.000;74.000;74.000;133.000;30.000;56.000;95.000;78.000;86.000;114.000;83.000;70.000;142.000;91.000;96.000;46.000;104.000;96.000;122.000;152.000;95.000;45.000;71.000;34.000;50.000;103.000;136.000;121.000;72.000;197.000;121.000;91.000;125.000;53.000;106.000;229.000;13.000;94.000;134.000;66.000;135.000;101.000;31.000;156.000;22.000;161.000;92.000;73.000;155.000;110.000;162.000;142.000;30.000;44.000;13.000;127.000;71.000;69.000;113.000;-20.000;128.000;132.000;92.000;60.000;89.000;107.000;52.000;141.000;136.000;31.000;112.000;155.000;118.000;111.000;87.000;96.000;18.000;80.000;22.000;78.000;83.000;155.000;113.000;93.000;47.000;110.000;41.000;11.000;47.000;178.000;50.000;123.000;114.000;128.000;176.000;71.000;78.000;126.000;71.000;211.000;95.000;100.000;159.000;205.000;209.000;134.000;191.000;147.000;187.000;196.000;246.000;172.000;325.000;230.000;267.000;349.000;341.000;378.000;424.000;470.000;365.000;389.000;428.000;416.000;395.000;325.000;434.000;383.000;317.000;310.000;416.000;393.000;397.000;369.000;372.000;394.000;392.000;456.000;465.000;396.000;465.000;392.000;396.000;387.000;513.000;437.000;454.000;498.000;430.000;457.000;467.000;452.000;393.000;511.000;499.000;543.000;521.000;477.000;358.000;501.000;481.000;481.000;399.000;409.000;451.000;440.000;508.000;402.000;478.000;385.000;395.000;474.000;425.000;534.000;379.000;534.000;376.000;537.000;411.000;459.000;373.000;527.000;540.000;460.000;435.000;432.000;454.000;436.000;373.000;390.000;479.000;447.000;395.000;431.000;453.000;374.000;490.000;466.000;428.000;516.000;567.000;468.000;452.000;461.000;457.000;456.000;429.000;490.000;446.000;570.000;609.000;552.000;538.000;515.000;524.000;414.000;524.000;483.000;425.000;459.000;483.000;515.000;505.000;508.000;534.000;506.000;472.000;493.000;499.000;544.000;525.000;539.000;602.000;511.000;541.000;537.000;565.000;556.000;548.000;553.000;465.000;504.000;555.000;614.000;490.000;582.000;555.000;582.000;490.000;454.000;546.000;501.000;506.000;567.000;510.000;560.000;495.000;444.000;597.000;525.000;554.000;530.000;552.000;491.000;570.000;474.000;513.000;598.000;541.000;464.000;469.000;613.000;506.000;585.000;604.000;510.000;556.000;557.000;533.000;487.000;482.000;586.000;485.000;598.000;518.000;624.000;476.000;575.000;562.000;500.000;554.000;592.000;624.000;620.000;551.000;590.000;515.000;509.000;491.000;546.000;534.000;486.000;615.000;497.000;600.000;509.000;492.000;615.000;540.000;536.000;558.000;566.000;644.000;521.000;581.000;520.000;586.000;567.000;582.000;639.000;664.000;644.000;521.000;566.000;626.000;654.000;527.000;749.000;582.000;566.000;690.000;557.000;633.000;554.000;660.000;604.000;564.000;567.000;623.000;532.000;609.000;705.000;569.000;612.000;633.000;651.000;613.000;657.000;579.000;646.000;689.000;586.000;617.000;617.000;548.000;608.000;644.000;601.000;639.000;603.000;604.000;540.000;611.000;614.000;656.000;532.000;680.000;631.000;633.000;709.000;627.000;687.000;622.000;699.000;644.000;686.000;676.000;670.000;639.000;672.000;624.000;667.000;592.000;721.000;735.000;631.000;677.000;647.000;678.000;697.000;720.000;707.000;635.000;687.000;670.000;730.000;667.000;687.000;660.000;718.000;677.000;645.000;719.000;605.000;721.000;710.000;775.000;637.000;645.000;708.000;757.000;676.000;760.000;746.000;607.000;741.000;629.000;722.000;753.000;679.000;716.000;728.000;766.000;842.000;843.000;721.000;776.000;752.000;727.000;694.000;768.000;698.000;749.000;709.000;827.000;763.000;813.000;705.000;714.000;700.000;694.000;798.000;715.000;735.000;753.000;695.000;799.000;837.000;886.000;742.000;711.000;802.000;691.000;670.000;741.000;832.000;783.000;795.000;833.000;805.000;823.000;796.000;855.000;743.000;732.000;743.000;842.000;807.000;795.000;772.000;852.000;747.000;775.000;834.000;774.000;759.000;834.000;735.000;749.000;710.000;816.000;644.000;786.000;737.000;763.000;740.000;767.000;813.000;807.000;766.000;796.000;881.000;827.000;773.000;761.000;839.000;756.000;800.000;737.000;786.000;822.000;751.000;756.000;771.000;792.000;801.000;863.000;878.000;789.000;796.000;869.000;784.000;788.000;760.000;783.000;820.000;711.000;720.000;799.000;829.000;653.000;748.000;854.000;762.000;707.000;743.000;733.000;826.000;737.000;729.000;653.000;775.000;714.000;801.000;775.000;769.000;784.000;817.000;726.000;806.000;737.000;752.000;865.000;752.000;673.000;754.000;695.000;729.000;843.000;707.000;775.000;782.000;683.000;784.000;696.000;659.000;686.000;745.000;813.000;698.000;748.000;751.000;721.000;664.000;738.000;747.000;758.000;722.000;797.000;714.000;632.000;742.000;787.000;678.000;627.000;689.000;722.000;777.000;736.000;738.000;724.000;713.000;809.000;669.000;708.000;658.000;730.000;694.000;672.000;717.000;782.000;799.000;832.000;678.000;733.000;667.000;673.000;690.000;694.000;799.000;699.000;770.000;688.000;649.000;724.000;648.000;625.000;670.000;700.000;720.000;740.000;697.000;627.000;734.000;623.000;727.000;671.000;736.000;618.000;646.000;712.000;715.000;651.000;677.000;713.000;679.000;653.000;747.000;662.000;603.000;675.000;728.000;687.000;754.000;696.000;658.000;714.000;809.000;690.000;630.000;748.000;743.000;654.000;585.000;670.000;610.000;712.000;652.000;696.000;679.000;663.000;698.000;788.000;683.000;729.000;791.000;712.000;687.000;670.000;625.000;585.000;658.000;594.000;621.000;654.000;664.000;628.000;678.000;620.000;755.000;713.000;659.000;619.000;661.000;716.000;690.000;787.000;689.000;689.000;629.000;704.000;707.000;644.000;680.000;690.000;770.000;669.000;669.000;638.000;806.000;698.000;733.000;650.000;654.000;692.000;679.000;704.000;669.000;607.000;721.000;709.000;585.000;670.000;800.000;728.000;679.000;718.000;651.000;673.000;656.000;624.000;698.000;725.000;690.000;703.000;580.000;702.000;573.000;711.000;637.000;710.000;658.000;647.000;690.000;649.000;547.000;607.000;538.000;659.000;741.000;677.000;544.000;648.000;650.000;723.000;654.000;597.000;596.000;624.000;654.000;643.000;659.000;676.000;668.000;578.000;686.000;632.000;710.000;736.000;592.000;733.000;761.000;738.000;733.000;665.000;785.000;780.000;768.000;731.000;713.000;767.000;765.000;740.000;897.000;856.000;901.000;763.000;862.000;790.000;882.000;796.000;797.000;815.000;845.000;830.000;866.000;818.000;953.000;869.000;863.000;886.000;829.000;877.000;783.000;908.000;787.000;915.000;980.000;979.000;871.000;963.000;1020.000;978.000;1035.000;1019.000;1033.000;1134.000;1121.000;1178.000;1124.000;1145.000;1169.000;1170.000;1182.000;1291.000;1247.000;1321.000;1290.000;1293.000;1367.000;1291.000;1370.000;1423.000;1384.000;1375.000;1636.000;1585.000;1537.000;1726.000;1742.000;1883.000;1172.000;987.000;1947.000;2213.000;2242.000;2430.000;2550.000;2739.000;2970.000;3176.000;3518.000;3748.000;4185.000;4650.000;5280.000;6024.000;6615.000;7995.000;9379.000;11047.000;13754.000;16925.000;21500.000;26490.000;32595.000;39126.000;44450.000;50743.000;55929.000;59965.000;62075.000;60091.000;55426.000;47473.000;38894.000;30636.000;23421.000;18130.000;14101.000;11199.000;9292.000;7961.000;6940.000;6091.000;5323.000;4639.000;4411.000;3866.000;3548.000;3241.000;2880.000;2878.000;2734.000;2507.000;2292.000;2362.000;2157.000;2064.000;1809.000;1788.000;1766.000;1736.000;1585.000;1646.000;1465.000;1417.000;1446.000;1318.000;1300.000;1273.000;1233.000;1198.000;1176.000;1035.000;1006.000;1006.000;999.000;1025.000;1022.000;869.000;958.000;974.000;909.000;878.000;760.000;824.000;785.000;832.000;841.000;714.000;703.000;779.000;765.000;656.000;683.000;578.000;683.000;661.000;642.000;606.000;578.000;622.000;614.000;658.000;607.000;533.000;594.000;494.000;662.000;481.000;581.000;611.000;523.000;597.000;453.000;564.000;522.000;445.000;526.000;561.000;435.000;512.000;441.000;453.000;470.000;471.000;494.000;501.000;434.000;496.000;434.000;556.000;450.000;423.000;435.000;448.000;448.000;423.000;509.000;416.000;387.000;444.000;432.000;472.000;503.000;482.000;448.000;447.000;465.000;489.000;480.000;455.000;438.000;415.000;409.000;409.000;315.000;479.000;443.000;367.000;363.000;441.000;324.000;389.000;334.000;345.000;375.000;380.000;390.000;361.000;368.000;338.000;423.000;395.000;345.000;389.000;402.000;374.000;309.000;381.000;378.000;420.000;300.000;398.000;339.000;402.000;449.000;432.000;365.000;327.000;440.000;416.000;416.000;346.000;395.000;333.000;361.000;462.000;410.000;399.000;396.000;357.000;394.000;428.000;380.000;462.000;420.000;461.000;454.000;442.000;435.000;420.000;441.000;438.000;471.000;495.000;393.000;336.000;480.000;413.000;393.000;387.000;521.000;380.000;366.000;420.000;341.000;372.000;426.000;371.000;346.000;374.000;336.000;404.000;367.000;377.000;428.000;500.000;369.000;419.000;404.000;362.000;290.000;471.000;340.000;416.000;415.000;329.000;346.000;336.000;323.000;309.000;420.000;257.000;420.000;462.000;275.000;422.000;378.000;351.000;362.000;365.000;275.000;365.000;334.000;341.000;412.000;299.000;290.000;364.000;390.000;338.000;335.000;365.000;385.000;319.000;337.000;351.000;310.000;313.000;288.000;396.000;249.000;259.000;240.000;-374.000;-1011.000;-1087.000;-1883.000;-1745.000;37.000;306.000;315.000;295.000;250.000;315.000;283.000;145.000;239.000;245.000;236.000;241.000;220.000;280.000;177.000;231.000;271.000;293.000;173.000;226.000;168.000;215.000;203.000;136.000;232.000;173.000;241.000;146.000;205.000;127.000;161.000;185.000;178.000;242.000;143.000;197.000;182.000;271.000;252.000;246.000;195.000;142.000;137.000;209.000;167.000;191.000;176.000;113.000;289.000;223.000;228.000;184.000;114.000;188.000;189.000;215.000;184.000;247.000;91.000;137.000;140.000;117.000;141.000;194.000;237.000;144.000;262.000;179.000;205.000;129.000;138.000;158.000;134.000;139.000;116.000;210.000;234.000;136.000;223.000;237.000;96.000;197.000;106.000;148.000;167.000;182.000;181.000;147.000;211.000;144.000;189.000;227.000;158.000;164.000;161.000;207.000;192.000;159.000;232.000;106.000;184.000;80.000;106.000;153.000;170.000;131.000;149.000;186.000;144.000;140.000;161.000;134.000;112.000;222.000;197.000;128.000;190.000;188.000;172.000;112.000;184.000;165.000;62.000;158.000;129.000;160.000;133.000;250.000;211.000;25.000;148.000;115.000;176.000;157.000;205.000;-15.000;167.000;235.000;153.000;209.000;143.000;83.000;94.000;179.000;121.000;119.000;111.000;142.000;162.000;157.000;196.000;191.000;169.000;128.000;131.000;150.000;121.000;176.000;88.000;179.000;91.000;146.000;119.000;195.000;139.000;153.000;149.000;153.000;165.000;122.000;109.000;146.000;120.000;221.000;106.000;116.000;144.000;125.000;170.000;99.000;152.000;148.000;147.000;88.000;168.000;155.000;67.000;157.000;159.000;148.000;66.000;174.000;113.000;203.000;137.000;100.000;176.000;86.000;163.000;139.000;119.000;116.000;166.000;124.000;93.000;137.000;104.000;104.000;102.000;41.000;197.000;147.000;128.000;99.000;44.000;103.000;149.000;70.000;92.000;236.000;170.000;133.000;82.000;130.000;115.000;102.000;111.000;109.000;65.000;114.000;148.000;164.000;131.000;84.000;80.000;203.000;79.000;208.000;95.000;122.000;164.000;145.000;148.000;147.000;60.000;86.000;182.000;67.000;129.000;137.000;134.000;267.000;224.000;145.000;127.000;218.000;103.000;128.000;83.000;91.000;66.000;165.000;59.000;97.000;157.000;106.000;186.000;76.000;114.000;143.000;206.000;159.000;85.000;138.000;177.000;148.000;152.000;115.000;138.000;130.000;139.000;108.000;52.000;108.000;102.000;88.000;115.000;84.000;70.000;107.000;87.000;83.000;135.000;176.000;109.000;167.000;114.000;193.000;188.000;109.000;105.000;174.000;109.000;141.000;79.000;178.000;103.000;99.000;111.000;73.000;99.000;125.000;59.000;56.000;108.000;159.000;55.000;143.000;72.000;37.000;164.000;16.000;86.000;154.000;137.000;31.000;159.000;170.000;141.000;129.000;207.000;73.000;84.000;81.000;121.000;90.000;109.000;22.000;158.000;92.000;163.000;108.000;83.000;127.000;160.000;89.000;136.000;108.000;62.000;29.000;93.000;95.000;97.000;120.000;101.000;124.000;66.000;147.000;106.000;162.000;122.000;137.000;128.000;56.000;65.000;201.000;149.000;70.000;63.000;106.000;66.000;100.000;66.000;109.000;115.000;56.000;166.000;79.000;187.000;99.000;198.000;96.000;126.000;39.000;90.000;114.000;167.000;90.000;41.000;118.000;174.000;76.000;70.000;107.000;116.000;116.000;151.000;84.000;150.000;120.000;60.000;71.000;134.000;51.000;126.000;205.000;91.000;123.000;132.000;32.000;120.000;71.000;127.000;152.000;123.000;63.000;155.000;142.000;121.000;133.000;-1.000;86.000;68.000;147.000;64.000;145.000;112.000;81.000;62.000;156.000;132.000;39.000;112.000;132.000;-2.000;98.000;169.000;102.000;120.000;146.000;95.000;25.000;50.000;145.000;142.000;121.000;82.000;101.000;142.000;97.000;58.000;98.000;128.000;84.000;-18.000;141.000;103.000;127.000;143.000;81.000;72.000;66.000;27.000;133.000;107.000;62.000;79.000;78.000;154.000;70.000;52.000;99.000;149.000;122.000;149.000;41.000;108.000;74.000;69.000;76.000;98.000;102.000;127.000;-171.000;-796.000;113.000;116.000;99.000;70.000;92.000;143.000;87.000;97.000;108.000;135.000;99.000;55.000;135.000;94.000;127.000;112.000;103.000;130.000;54.000;31.000;66.000;99.000;59.000;103.000;110.000;120.000;143.000;45.000;61.000;147.000;166.000;47.000;173.000;92.000;207.000;87.000;129.000;197.000;111.000;81.000;100.000;50.000;91.000;105.000;124.000;134.000;151.000;90.000;143.000;143.000;88.000;14.000;103.000;178.000;140.000;96.000;189.000;117.000;80.000;103.000;84.000;136.000;58.000;178.000;113.000;70.000;116.000;91.000;121.000;109.000;176.000;86.000;142.000;106.000;207.000;136.000;73.000;147.000;46.000;139.000;103.000;35.000;186.000;131.000;182.000;79.000;155.000;114.000;101.000;180.000;130.000;98.000;184.000;147.000;100.000;137.000;168.000;185.000;92.000;157.000;118.000;117.000;116.000;116.000;115.000;97.000;165.000;148.000;109.000;166.000;206.000;87.000;213.000;125.000;146.000;144.000;204.000;241.000;191.000;210.000;136.000;146.000;126.000;84.000;201.000;157.000;81.000;154.000;201.000;197.000;165.000;97.000;129.000;214.000;128.000;117.000;190.000;159.000;164.000;202.000;149.000;163.000;149.000;146.000;38.000;166.000;235.000;104.000;76.000;98.000;155.000;148.000;162.000;170.000;33.000;106.000;173.000;104.000;155.000;98.000;85.000;142.000;112.000;64.000;122.000;101.000;75.000;148.000;95.000;33.000;119.000;121.000;149.000;106.000;129.000;172.000;100.000;159.000;121.000;61.000;153.000;201.000;141.000;97.000;71.000;156.000;96.000;104.000;122.000;52.000;56.000;121.000;108.000;165.000;74.000;123.000;131.000;134.000;79.000;156.000;114.000;184.000;140.000;181.000;106.000;156.000;95.000;163.000;157.000;121.000;150.000;127.000;142.000;107.000;72.000;156.000;119.000;72.000;111.000;46.000;138.000;95.000;129.000;124.000;86.000;119.000;156.000;167.000;193.000;132.000;157.000;103.000;139.000;69.000;70.000;119.000;103.000;132.000;88.000;151.000;94.000;20.000;164.000;64.000;128.000;126.000;121.000;102.000;32.000;74.000;82.000;149.000;83.000;65.000;48.000;103.000;74.000;72.000;46.000;94.000;58.000;58.000;101.000;61.000;88.000;64.000;83.000;-3.000;48.000;61.000;24.000;148.000;-11.000;90.000;111.000;13.000;
-50.000;-50.000;-40.495;-39.924;-39.353;-38.782;-38.211;-37.640;-37.069;-36.498;-35.927;-35.356;-34.785;-34.215;-33.644;-33.073;-32.503;-31.932;-31.362;-30.791;-30.221;-29.651;-29.080;-28.510;-27.940;-27.370;-26.800;-26.230;-25.660;-25.090;-24.520;-23.950;-23.380;-22.810;-22.241;-21.671;-21.101;-20.532;-19.962;-19.393;-18.823;-18.254;-17.685;-17.116;-16.546;-15.977;-15.408;-14.839;-14.270;-13.701;-13.132;-12.563;-11.994;-11.426;-10.857;-10.288;-9.719;-9.151;-8.582;-8.014;-7.445;-6.877;-6.309;-5.740;-5.172;-4.604;-4.036;-3.468;-2.900;-2.332;-1.764;-1.196;-0.628;-0.060;0.508;1.076;1.643;2.211;2.778;3.346;3.913;4.481;5.048;5.616;6.183;6.750;7.317;7.884;8.452;9.019;9.586;10.153;10.719;11.286;11.853;12.420;12.987;13.553;14.120;14.686;15.253;15.819;16.386;16.952;17.519;18.085;18.651;19.217;19.783;20.349;20.915;21.481;22.047;22.613;23.179;23.745;24.311;24.876;25.442;26.008;26.573;27.139;27.704;28.269;28.835;29.400;29.965;30.531;31.096;31.661;32.226;32.791;33.356;33.921;34.486;35.051;35.615;36.180;36.745;37.309;37.874;38.439;39.003;39.567;40.132;40.696;41.261;41.825;42.389;42.953;43.517;44.081;44.645;45.209;45.773;46.337;46.901;47.465;48.028;48.592;49.156;49.719;50.283;50.846;51.410;51.973;52.536;53.100;53.663;54.226;54.789;55.352;55.915;56.478;57.041;57.604;58.167;58.730;59.293;59.855;60.418;60.981;61.543;62.106;62.668;63.231;63.793;64.355;64.918;65.480;66.042;66.604;67.166;67.728;68.290;68.852;69.414;69.976;70.538;71.099;71.661;72.223;72.784;73.346;73.907;74.469;75.030;75.592;76.153;76.714;77.275;77.837;78.398;78.959;79.520;80.081;80.642;81.203;81.763;82.324;82.885;83.446;84.006;84.567;85.127;85.688;86.248;86.809;87.369;87.929;88.490;89.050;89.610;90.170;90.730;91.290;91.850;92.410;92.970;93.530;94.090;94.649;95.209;95.769;96.328;96.888;97.447;98.007;98.566;99.125;99.685;100.244;100.803;101.362;101.921;102.480;103.039;103.598;104.157;104.716;105.275;105.834;106.393;106.951;107.510;108.068;108.627;109.185;109.744;110.302;110.861;111.419;111.977;112.535;113.093;113.651;114.210;114.768;115.325;115.883;116.441;116.999;117.557;118.115;118.672;119.230;119.787;120.345;120.902;121.460;122.017;122.574;123.132;123.689;124.246;124.803;125.360;125.917;126.474;127.031;127.588;128.145;128.702;129.259;129.815;130.372;130.929;131.485;132.042;132.598;133.155;133.711;134.267;134.824;135.380;135.936;136.492;137.048;137.604;138.160;138.716;139.272;139.828;140.384;140.939;141.495;142.051;142.606;143.162;143.717;144.273;144.828;145.384;145.939;146.494;147.049;147.605;148.160;148.715;149.270;149.825;150.380;150.935;151.489;152.044;152.599;153.154;153.708;154.263;154.817;155.372;155.926;156.481;157.035;157.590;158.144;158.698;159.252;159.806;160.360;160.914;161.468;162.022;162.576;163.130;163.684;164.237;164.791;165.345;165.898;166.452;167.005;167.559;168.112;168.666;169.219;169.772;170.325;170.879;171.432;171.985;172.538;173.091;173.644;174.197;174.749;175.302;175.855;176.408;176.960;177.513;178.065;178.618;179.170;179.723;180.275;180.827;181.380;181.932;182.484;183.036;183.588;184.140;184.692;185.244;185.796;186.348;186.899;187.451;188.003;188.554;189.106;189.658;190.209;190.761;191.312;191.863;192.415;192.966;193.517;194.068;194.619;195.170;195.721;196.272;196.823;197.374;197.925;198.476;199.026;199.577;200.128;200.678;201.229;201.779;202.330;202.880;203.430;203.981;204.531;205.081;205.631;206.181;206.731;207.281;207.831;208.381;208.931;209.481;210.031;210.581;211.130;211.680;212.229;212.779;213.328;213.878;214.427;214.977;215.526;216.075;216.624;217.173;217.723;218.272;218.821;219.370;219.918;220.467;221.016;221.565;222.114;222.662;223.211;223.760;224.308;224.857;225.405;225.953;226.502;227.050;227.598;228.146;228.695;229.243;229.791;230.339;230.887;231.435;231.982;232.530;233.078;233.626;234.173;234.721;235.269;235.816;236.364;236.911;237.458;238.006;238.553;239.100;239.648;240.195;240.742;241.289;241.836;242.383;242.930;243.477;244.023;244.570;245.117;245.663;246.210;246.757;247.303;247.850;248.396;248.943;249.489;250.035;250.581;251.128;251.674;252.220;252.766;253.312;253.858;254.404;254.950;255.495;256.041;256.587;257.133;257.678;258.224;258.769;259.315;259.860;260.406;260.951;261.496;262.041;262.587;263.132;263.677;264.222;264.767;265.312;265.857;266.402;266.947;267.491;268.036;268.581;269.125;269.670;270.214;270.759;271.303;271.848;272.392;272.936;273.481;274.025;274.569;275.113;275.657;276.201;276.745;277.289;277.833;278.377;278.920;279.464;280.008;280.551;281.095;281.639;282.182;282.725;283.269;283.812;284.355;284.899;285.442;285.985;286.528;287.071;287.614;288.157;288.700;289.243;289.786;290.329;290.871;291.414;291.957;292.499;293.042;293.584;294.127;294.669;295.211;295.754;296.296;296.838;297.380;297.922;298.464;299.006;299.548;300.090;300.632;301.174;301.716;302.257;302.799;303.341;303.882;304.424;304.965;305.507;306.048;306.590;307.131;307.672;308.213;308.755;309.296;309.837;310.378;310.919;311.460;312.000;312.541;313.082;313.623;314.163;314.704;315.245;315.785;316.326;316.866;317.407;317.947;318.487;319.027;319.568;320.108;320.648;321.188;321.728;322.268;322.808;323.348;323.888;324.427;324.967;325.507;326.046;326.586;327.126;327.665;328.205;328.744;329.283;329.823;330.362;330.901;331.440;331.979;332.518;333.058;333.596;334.135;334.674;335.213;335.752;336.291;336.829;337.368;337.907;338.445;338.984;339.522;340.061;340.599;341.137;341.675;342.214;342.752;343.290;343.828;344.366;344.904;345.442;345.980;346.518;347.056;347.593;348.131;348.669;349.206;349.744;350.281;350.819;351.356;351.894;352.431;352.968;353.505;354.043;354.580;355.117;355.654;356.191;356.728;357.265;357.801;358.338;358.875;359.412;359.948;360.485;361.022;361.558;362.095;362.631;363.167;363.704;364.240;364.776;365.312;365.848;366.385;366.921;367.457;367.993;368.528;369.064;369.600;370.136;370.672;371.207;371.743;372.278;372.814;373.349;373.885;374.420;374.956;375.491;376.026;376.561;377.096;377.632;378.167;378.702;379.237;379.771;380.306;380.841;381.376;381.911;382.445;382.980;383.515;384.049;384.584;385.118;385.652;386.187;386.721;387.255;387.789;388.324;388.858;389.392;389.926;390.460;390.994;391.528;392.061;392.595;393.129;393.663;394.196;394.730;395.263;395.797;396.330;396.864;397.397;397.930;398.464;398.997;399.530;400.063;400.596;401.129;401.662;402.195;402.728;403.261;403.794;404.326;404.859;405.392;405.924;406.457;406.989;407.522;408.054;408.586;409.119;409.651;410.183;410.715;411.248;411.780;412.312;412.844;413.376;413.908;414.439;414.971;415.503;416.035;416.566;417.098;417.629;418.161;418.692;419.224;419.755;420.287;420.818;421.349;421.880;422.411;422.942;423.473;424.004;424.535;425.066;425.597;426.128;426.659;427.189;427.720;428.251;428.781;429.312;429.842;430.373;430.903;431.433;431.964;432.494;433.024;433.554;434.084;434.614;435.145;435.674;436.204;436.734;437.264;437.794;438.324;438.853;439.383;439.912;440.442;440.971;441.501;442.030;442.560;443.089;443.618;444.147;444.677;445.206;445.735;446.264;446.793;447.322;447.851;448.379;448.908;449.437;449.966;450.494;451.023;451.551;452.080;452.608;453.137;453.665;454.193;454.722;455.250;455.778;456.306;456.834;457.362;457.890;458.418;458.946;459.474;460.002;460.530;461.057;461.585;462.112;462.640;463.168;463.695;464.222;464.750;465.277;465.804;466.332;466.859;467.386;467.913;468.440;468.967;469.494;470.021;470.548;471.075;471.601;472.128;472.655;473.181;473.708;474.235;474.761;475.287;475.814;476.340;476.866;477.393;477.919;478.445;478.971;479.497;480.023;480.549;481.075;481.601;482.127;482.653;483.178;483.704;484.230;484.755;485.281;485.806;486.332;486.857;487.383;487.908;488.433;488.958;489.483;490.009;490.534;491.059;491.584;492.109;492.633;493.158;493.683;494.208;494.733;495.257;495.782;496.306;496.831;497.355;497.880;498.404;498.928;499.453;499.977;500.501;501.025;501.549;502.073;502.597;503.121;503.645;504.169;504.693;505.217;505.740;506.264;506.788;507.311;507.835;508.358;508.882;509.405;509.928;510.452;510.975;511.498;512.021;512.544;513.068;513.591;514.114;514.636;515.159;515.682;516.205;516.728;517.250;517.773;518.296;518.818;519.341;519.863;520.385;520.908;521.430;521.952;522.475;522.997;523.519;524.041;524.563;525.085;525.607;526.129;526.651;527.172;527.694;528.216;528.738;529.259;529.781;530.302;530.824;531.345;531.867;532.388;532.909;533.430;533.952;534.473;534.994;535.515;536.036;536.557;537.078;537.599;538.119;538.640;539.161;539.682;540.202;540.723;541.243;541.764;542.284;542.805;543.325;543.845;544.366;544.886;545.406;545.926;546.446;546.966;547.486;548.006;548.526;549.046;549.566;550.085;550.605;551.125;551.644;552.164;552.683;553.203;553.722;554.242;554.761;555.280;555.799;556.319;556.838;557.357;557.876;558.395;558.914;559.433;559.951;560.470;560.989;561.508;562.026;562.545;563.064;563.582;564.101;564.619;565.137;565.656;566.174;566.692;567.211;567.729;568.247;568.765;569.283;569.801;570.319;570.837;571.354;571.872;572.390;572.908;573.425;573.943;574.460;574.978;575.495;576.013;576.530;577.048;577.565;578.082;578.599;579.116;579.633;580.150;580.667;581.184;581.701;582.218;582.735;583.252;583.768;584.285;584.802;585.318;585.835;586.351;586.868;587.384;587.900;588.417;588.933;589.449;589.965;590.481;590.997;591.513;592.029;592.545;593.061;593.577;594.093;594.609;595.124;595.640;596.155;596.671;597.186;597.702;598.217;598.733;599.248;599.763;600.278;600.794;601.309;601.824;602.339;602.854;603.369;603.884;604.399;604.913;605.428;605.943;606.457;606.972;607.487;608.001;608.516;609.030;609.544;610.059;610.573;611.087;611.602;612.116;612.630;613.144;613.658;614.172;614.686;615.200;615.713;616.227;616.741;617.255;617.768;618.282;618.795;619.309;619.822;620.336;620.849;621.362;621.876;622.389;622.902;623.415;623.928;624.441;624.954;625.467;625.980;626.493;627.006;627.519;628.031;628.544;629.057;629.569;630.082;630.594;631.107;631.619;632.131;632.644;633.156;633.668;634.180;634.692;635.204;635.716;636.228;636.740;637.252;637.764;638.276;638.787;639.299;639.811;640.322;640.834;641.345;641.857;642.368;642.880;643.391;643.902;644.413;644.925;645.436;645.947;646.458;646.969;647.480;647.991;648.502;649.012;649.523;650.034;650.545;651.055;651.566;652.076;652.587;653.097;653.608;654.118;654.628;655.138;655.649;656.159;656.669;657.179;657.689;658.199;658.709;659.219;659.729;660.238;660.748;661.258;661.767;662.277;662.787;663.296;663.806;664.315;664.824;665.334;665.843;666.352;666.861;667.371;667.880;668.389;668.898;669.407;669.916;670.424;670.933;671.442;671.951;672.459;672.968;673.477;673.985;674.494;675.002;675.510;676.019;676.527;677.035;677.544;678.052;678.560;679.068;679.576;680.084;680.592;681.100;681.608;682.115;682.623;683.131;683.639;684.146;684.654;685.161;685.669;686.176;686.683;687.191;687.698;688.205;688.713;689.220;689.727;690.234;690.741;691.248;691.755;692.262;692.768;693.275;693.782;694.289;694.795;695.302;695.808;696.315;696.821;697.328;697.834;698.340;698.847;699.353;699.859;700.365;700.871;701.377;701.883;702.389;702.895;703.401;703.907;704.413;704.918;705.424;705.930;706.435;706.941;707.446;707.952;708.457;708.962;709.468;709.973;710.478;710.983;711.488;711.994;712.499;713.004;713.508;714.013;714.518;715.023;715.528;716.032;716.537;717.042;717.546;718.051;718.555;719.060;719.564;720.068;720.573;721.077;721.581;722.085;722.589;723.093;723.597;724.101;724.605;725.109;725.613;726.117;726.620;727.124;727.628;728.131;728.635;729.138;729.642;730.145;730.649;731.152;731.655;732.159;732.662;733.165;733.668;734.171;734.674;735.177;735.680;736.183;736.685;737.188;737.691;738.194;738.696;739.199;739.701;740.204;740.706;741.209;741.711;742.213;742.716;743.218;743.720;744.222;744.724;745.226;745.728;746.230;746.732;747.234;747.736;748.237;748.739;749.241;749.742;750.244;750.745;751.247;751.748;752.250;752.751;753.252;753.754;754.255;754.756;755.257;755.758;756.259;756.760;757.261;757.762;758.263;758.764;759.264;759.765;760.266;760.766;761.267;761.767;762.268;762.768;763.268;763.769;764.269;764.769;765.270;765.770;766.270;766.770;767.270;767.770;768.270;768.770;769.269;769.769;770.269;770.769;771.268;771.768;772.267;772.767;773.266;773.766;774.265;774.764;775.264;775.763;776.262;776.761;777.260;777.759;778.258;778.757;779.256;779.755;780.254;780.753;781.251;781.750;782.249;782.747;783.246;783.744;784.243;784.741;785.239;785.738;786.236;786.734;787.232;787.730;788.228;788.726;789.224;789.722;790.220;790.718;791.216;791.714;792.211;792.709;793.207;793.704;794.202;794.699;795.197;795.694;796.191;796.689;797.186;797.683;798.180;798.677;799.174;799.671;800.168;800.665;801.162;801.659;802.156;802.653;803.149;803.646;804.143;804.639;805.136;805.632;806.129;806.625;807.121;807.618;808.114;808.610;809.106;809.602;810.098;810.594;811.090;811.586;812.082;812.578;813.074;813.569;814.065;814.561;815.056;815.552;816.047;816.543;817.038;817.534;818.029;818.524;819.019;819.515;820.010;820.505;821.000;821.495;821.990;822.485;822.980;823.474;823.969;824.464;824.959;825.453;825.948;826.442;826.937;827.431;827.926;828.420;828.914;829.409;829.903;830.397;830.891;831.385;831.879;832.373;832.867;833.361;833.855;834.349;834.843;835.336;835.830;836.324;836.817;837.311;837.804;838.298;838.791;839.285;839.778;840.271;840.764;841.258;841.751;842.244;842.737;843.230;843.723;844.216;844.708;845.201;845.694;846.187;846.679;847.172;847.665;848.157;848.650;849.142;849.634;850.127;850.619;851.111;851.604;852.096;852.588;853.080;853.572;854.064;854.556;855.048;855.540;856.031;856.523;857.015;857.507;857.998;858.490;858.981;859.473;859.964;860.456;860.947;861.438;861.930;862.421;862.912;863.403;863.894;864.385;864.876;865.367;865.858;866.349;866.840;867.330;867.821;868.312;868.802;869.293;869.783;870.274;870.764;871.255;871.745;872.235;872.726;873.216;873.706;874.196;874.686;875.176;875.666;876.156;876.646;877.136;877.626;878.115;878.605;879.095;879.584;880.074;880.563;881.053;881.542;882.032;882.521;883.010;883.500;883.989;884.478;884.967;885.456;885.945;886.434;886.923;887.412;887.901;888.390;888.878;889.367;889.856;890.344;890.833;891.321;891.810;892.298;892.787;893.275;893.763;894.252;894.740;895.228;895.716;896.204;896.692;897.180;897.668;898.156;898.644;899.132;899.619;900.107;900.595;901.082;901.570;902.057;902.545;903.032;903.520;904.007;904.494;904.981;905.469;905.956;906.443;906.930;907.417;907.904;908.391;908.878;909.365;909.851;910.338;910.825;911.312;911.798;912.285;912.771;913.258;913.744;914.231;914.717;915.203;915.689;916.176;916.662;917.148;917.634;918.120;918.606;919.092;919.578;920.064;920.549;921.035;921.521;922.006;922.492;922.978;923.463;923.949;924.434;924.919;925.405;925.890;926.375;926.861;927.346;927.831;928.316;928.801;929.286;929.771;930.256;930.741;931.225;931.710;932.195;932.679;933.164;933.649;934.133;934.618;935.102;935.586;936.071;936.555;937.039;937.524;938.008;938.492;938.976;939.460;939.944;940.428;940.912;941.396;941.879;942.363;942.847;943.330;943.814;944.298;944.781;945.265;945.748;946.231;946.715;947.198;947.681;948.165;948.648;949.131;949.614;950.097;950.580;951.063;951.546;952.029;952.511;952.994;953.477;953.959;954.442;954.925;955.407;955.890;956.372;956.854;957.337;957.819;958.301;958.784;959.266;959.748;960.230;960.712;961.194;961.676;962.158;962.640;963.121;963.603;964.085;964.567;965.048;965.530;966.011;966.493;966.974;967.456;967.937;968.418;968.900;969.381;969.862;970.343;970.824;971.305;971.786;972.267;972.748;973.229;973.710;974.190;974.671;975.152;975.632;976.113;976.594;977.074;977.555;978.035;978.515;978.996;979.476;979.956;980.436;980.916;981.396;981.876;982.356;982.836;983.316;983.796;984.276;984.756;985.235;985.715;986.195;986.674;987.154;987.633;988.113;988.592;989.072;989.551;990.030;990.509;990.989;991.468;991.947;992.426;992.905;993.384;993.863;994.342;994.820;995.299;995.778;996.257;996.735;997.214;997.692;998.171;998.649;999.128;999.606;1000.085;1000.563;1001.041;1001.519;1001.997;1002.475;1002.953;1003.432;1003.909;1004.387;1004.865;1005.343;1005.821;1006.299;1006.776;1007.254;1007.732;1008.209;1008.687;1009.164;1009.641;1010.119;1010.596;1011.073;1011.551;1012.028;1012.505;1012.982;1013.459;1013.936;1014.413;1014.890;1015.367;1015.844;1016.321;1016.797;1017.274;1017.751;1018.227;1018.704;1019.180;1019.657;1020.133;1020.610;1021.086;1021.562;1022.039;1022.515;1022.991;1023.467;1023.943;1024.419;1024.895;1025.371;1025.847;1026.323;1026.799;1027.274;1027.750;1028.226;1028.701;1029.177;1029.653;
-50.000;-50.000;13.000;3.000;18.000;30.000;104.000;74.000;3.000;66.000;10.000;86.000;61.000;-36.000;32.000;89.000;112.000;68.000;74.000;161.000;87.000;116.000;113.000;-26.000;45.000;49.000;119.000;41.000;10.000;63.000;111.000;29.000;32.000;-6.000;142.000;-18.000;89.000;90.000;136.000;45.000;119.000;77.000;140.000;75.000;187.000;125.000;76.000;113.000;31.000;82.000;128.000;142.000;55.000;23.000;98.000;35.000;72.000;93.000;94.000;102.000;88.000;141.000;144.000;139.000;165.000;48.000;52.000;71.000;82.000;165.000;-21.000;72.000;119.000;116.000;101.000;40.000;161.000;83.000;89.000;123.000;96.000;104.000;50.000;213.000;107.000;149.000;79.000;90.000;43.000;90.000;153.000;132.000;77.000;107.000;43.000;155.000;44.000;93.000;131.000;115.000;141.000;48.000;124.000;106.000;138.000;86.000;96.000;129.000;128.000;137.000;166.000;126.000;359.000;510.000;493.000;458.000;398.000;295.000;117.000;39.000;202.000;88.000;188.000;6.000;66.000;103.000;182.000;138.000;125.000;76.000;57.000;86.000;50.000;59.000;136.000;28.000;-10.000;37.000;135.000;125.000;38.000;55.000;94.000;125.000;31.000;120.000;108.000;173.000;42.000;137.000;93.000;16.000;157.000;78.000;93.000;38.000;79.000;74.000;103.000;95.000;71.000;3.000;124.000;34.000;78.000;102.000;154.000;37.000;184.000;115.000;28.000;79.000;143.000;66.000;68.000;53.000;139.000;57.000;130.000;13.000;62.000;194.000;60.000;8.000;111.000;88.000;125.000;75.000;57.000;91.000;169.000;66.000;60.000;24.000;106.000;75.000;144.000;63.000;168.000;120.000;68.000;148.000;-3.000;78.000;18.000;83.000;60.000;109.000;76.000;84.000;79.000;103.000;90.000;174.000;49.000;92.000;53.000;33.000;63.000;99.000;34.000;114.000;30.000;87.000;41.000;44.000;129.000;151.000;103.000;203.000;20.000;3.000;18.000;47.000;71.000;117.000;48.000;39.000;176.000;169.000;-3.000;136.000;52.000;68.000;67.000;49.000;161.000;118.000;83.000;100.000;105.000;43.000;70.000;119.000;50.000;55.000;75.000;42.000;159.000;169.000;101.000;60.000;7.000;135.000;88.000;-15.000;132.000;132.000;98.000;101.000;99.000;55.000;110.000;42.000;60.000;125.000;37.000;150.000;129.000;108.000;150.000;160.000;122.000;86.000;182.000;54.000;172.000;155.000;216.000;103.000;183.000;120.000;106.000;209.000;265.000;244.000;303.000;266.000;272.000;231.000;300.000;205.000;189.000;240.000;193.000;250.000;269.000;146.000;297.000;199.000;252.000;283.000;248.000;283.000;235.000;286.000;298.000;313.000;255.000;228.000;204.000;267.000;260.000;300.000;305.000;294.000;269.000;273.000;249.000;223.000;333.000;345.000;264.000;278.000;314.000;352.000;255.000;282.000;229.000;196.000;195.000;286.000;288.000;266.000;273.000;256.000;265.000;248.000;270.000;338.000;287.000;301.000;152.000;394.000;223.000;321.000;288.000;261.000;264.000;335.000;306.000;273.000;296.000;291.000;264.000;223.000;217.000;289.000;338.000;199.000;275.000;342.000;222.000;334.000;252.000;266.000;261.000;432.000;326.000;233.000;369.000;345.000;274.000;300.000;249.000;274.000;306.000;338.000;328.000;355.000;342.000;368.000;319.000;250.000;370.000;290.000;350.000;315.000;266.000;235.000;393.000;230.000;338.000;249.000;328.000;251.000;268.000;324.000;309.000;357.000;308.000;323.000;268.000;316.000;300.000;397.000;349.000;304.000;320.000;312.000;325.000;331.000;295.000;322.000;364.000;330.000;350.000;388.000;328.000;304.000;301.000;298.000;291.000;400.000;303.000;308.000;357.000;379.000;327.000;302.000;419.000;310.000;394.000;289.000;340.000;430.000;331.000;281.000;263.000;402.000;307.000;318.000;326.000;337.000;391.000;354.000;380.000;351.000;364.000;417.000;359.000;388.000;372.000;399.000;295.000;343.000;314.000;327.000;397.000;370.000;395.000;378.000;366.000;443.000;345.000;284.000;356.000;311.000;388.000;338.000;328.000;310.000;409.000;307.000;348.000;490.000;332.000;393.000;317.000;366.000;480.000;338.000;387.000;421.000;372.000;417.000;329.000;387.000;363.000;427.000;363.000;331.000;475.000;451.000;369.000;472.000;419.000;406.000;493.000;386.000;368.000;436.000;358.000;455.000;435.000;342.000;492.000;343.000;415.000;476.000;419.000;401.000;388.000;477.000;431.000;490.000;324.000;543.000;416.000;416.000;446.000;431.000;388.000;463.000;452.000;425.000;431.000;465.000;492.000;418.000;383.000;428.000;374.000;406.000;469.000;444.000;441.000;431.000;433.000;429.000;407.000;453.000;478.000;521.000;468.000;425.000;387.000;432.000;532.000;469.000;451.000;466.000;475.000;424.000;496.000;481.000;476.000;499.000;509.000;438.000;516.000;469.000;447.000;453.000;484.000;516.000;566.000;551.000;419.000;471.000;473.000;424.000;503.000;546.000;591.000;473.000;495.000;453.000;591.000;560.000;573.000;487.000;499.000;513.000;490.000;487.000;537.000;443.000;592.000;477.000;506.000;577.000;563.000;532.000;571.000;573.000;544.000;629.000;479.000;636.000;654.000;531.000;554.000;569.000;575.000;478.000;567.000;535.000;515.000;513.000;607.000;526.000;578.000;567.000;575.000;562.000;671.000;529.000;569.000;614.000;622.000;543.000;588.000;560.000;638.000;641.000;621.000;550.000;662.000;495.000;605.000;483.000;730.000;585.000;692.000;595.000;537.000;632.000;637.000;572.000;581.000;627.000;671.000;599.000;596.000;556.000;541.000;645.000;645.000;577.000;539.000;557.000;590.000;565.000;565.000;577.000;630.000;624.000;651.000;625.000;583.000;617.000;568.000;666.000;676.000;573.000;638.000;664.000;627.000;545.000;641.000;603.000;581.000;663.000;700.000;643.000;664.000;655.000;619.000;641.000;596.000;565.000;638.000;669.000;563.000;570.000;628.000;670.000;487.000;610.000;584.000;619.000;662.000;578.000;602.000;656.000;542.000;626.000;660.000;627.000;588.000;595.000;583.000;570.000;607.000;541.000;690.000;574.000;530.000;629.000;650.000;656.000;568.000;626.000;607.000;669.000;647.000;626.000;615.000;624.000;637.000;613.000;514.000;642.000;642.000;607.000;571.000;621.000;595.000;662.000;652.000;637.000;700.000;665.000;590.000;517.000;622.000;576.000;547.000;664.000;665.000;580.000;607.000;618.000;621.000;590.000;623.000;716.000;647.000;590.000;717.000;621.000;642.000;571.000;592.000;591.000;636.000;618.000;616.000;619.000;627.000;655.000;630.000;572.000;580.000;685.000;605.000;706.000;665.000;653.000;639.000;594.000;662.000;659.000;682.000;632.000;592.000;690.000;622.000;567.000;658.000;705.000;673.000;653.000;698.000;631.000;664.000;600.000;599.000;645.000;658.000;571.000;684.000;644.000;680.000;543.000;619.000;623.000;602.000;727.000;607.000;692.000;628.000;603.000;607.000;711.000;714.000;591.000;637.000;612.000;701.000;677.000;570.000;600.000;633.000;614.000;679.000;669.000;573.000;697.000;733.000;654.000;744.000;691.000;736.000;666.000;639.000;544.000;567.000;697.000;620.000;644.000;699.000;649.000;708.000;709.000;653.000;720.000;641.000;665.000;696.000;674.000;696.000;686.000;731.000;712.000;694.000;586.000;655.000;685.000;701.000;700.000;734.000;651.000;806.000;738.000;663.000;832.000;737.000;715.000;705.000;661.000;701.000;815.000;660.000;751.000;776.000;756.000;670.000;686.000;694.000;755.000;700.000;769.000;711.000;674.000;742.000;775.000;730.000;672.000;719.000;601.000;734.000;685.000;748.000;642.000;702.000;655.000;798.000;642.000;633.000;817.000;717.000;623.000;632.000;716.000;728.000;704.000;641.000;706.000;620.000;642.000;761.000;674.000;727.000;697.000;718.000;695.000;731.000;762.000;755.000;857.000;725.000;776.000;671.000;775.000;870.000;779.000;860.000;969.000;815.000;882.000;798.000;930.000;919.000;803.000;835.000;860.000;917.000;863.000;866.000;874.000;923.000;926.000;926.000;1020.000;920.000;989.000;962.000;955.000;960.000;1021.000;976.000;993.000;1078.000;1056.000;1017.000;968.000;992.000;1106.000;1086.000;1006.000;1172.000;1069.000;1139.000;1181.000;1195.000;1072.000;1209.000;1259.000;1220.000;1164.000;1264.000;1262.000;1294.000;1355.000;1398.000;1287.000;1485.000;1427.000;1580.000;1483.000;1577.000;1573.000;1687.000;1697.000;1545.000;1810.000;1704.000;1796.000;1772.000;1762.000;1902.000;2013.000;1946.000;2102.000;2208.000;2282.000;2365.000;1749.000;1639.000;2603.000;2868.000;3029.000;3312.000;3501.000;3731.000;4173.000;4421.000;4866.000;5135.000;5928.000;6410.000;7225.000;8246.000;9484.000;11016.000;12905.000;15783.000;19231.000;24225.000;30248.000;38174.000;46850.000;54953.000;62550.000;69858.000;76658.000;82705.000;85378.000;83595.000;76932.000;66200.000;54055.000;42982.000;33481.000;25868.000;20278.000;16008.000;13465.000;11183.000;9880.000;8304.000;7584.000;6630.000;6054.000;5395.000;4949.000;4538.000;4302.000;4022.000;3747.000;3535.000;3411.000;3285.000;2957.000;2832.000;2626.000;2696.000;2551.000;2324.000;2314.000;2259.000;2077.000;2020.000;2089.000;1946.000;1863.000;1829.000;1783.000;1639.000;1735.000;1516.000;1537.000;1458.000;1434.000;1490.000;1504.000;1350.000;1375.000;1237.000;1209.000;1364.000;1172.000;1206.000;1169.000;1210.000;1178.000;1032.000;1298.000;1029.000;1104.000;992.000;1000.000;914.000;1079.000;1037.000;1038.000;984.000;942.000;987.000;952.000;900.000;869.000;790.000;879.000;897.000;885.000;812.000;782.000;887.000;946.000;900.000;788.000;841.000;828.000;731.000;814.000;797.000;781.000;813.000;806.000;798.000;712.000;783.000;671.000;732.000;736.000;729.000;748.000;653.000;744.000;672.000;701.000;677.000;694.000;625.000;586.000;723.000;700.000;753.000;737.000;754.000;668.000;683.000;812.000;617.000;722.000;704.000;690.000;621.000;718.000;677.000;634.000;658.000;655.000;672.000;736.000;636.000;677.000;653.000;651.000;616.000;564.000;677.000;572.000;628.000;546.000;621.000;718.000;636.000;728.000;673.000;663.000;583.000;683.000;680.000;608.000;764.000;658.000;671.000;562.000;741.000;699.000;669.000;807.000;652.000;659.000;555.000;712.000;662.000;721.000;703.000;712.000;664.000;613.000;698.000;740.000;736.000;698.000;682.000;684.000;754.000;694.000;772.000;686.000;771.000;759.000;759.000;776.000;782.000;719.000;766.000;705.000;806.000;757.000;718.000;748.000;643.000;733.000;643.000;755.000;686.000;689.000;692.000;740.000;693.000;702.000;657.000;698.000;732.000;631.000;730.000;657.000;609.000;715.000;639.000;676.000;609.000;572.000;597.000;550.000;664.000;624.000;643.000;663.000;652.000;646.000;633.000;584.000;646.000;605.000;601.000;670.000;716.000;571.000;667.000;645.000;602.000;608.000;614.000;541.000;510.000;686.000;660.000;640.000;571.000;579.000;570.000;678.000;649.000;580.000;537.000;573.000;550.000;585.000;562.000;541.000;582.000;573.000;630.000;521.000;553.000;504.000;-178.000;-744.000;-889.000;-1610.000;-1520.000;232.000;551.000;544.000;507.000;580.000;577.000;534.000;477.000;509.000;515.000;464.000;492.000;453.000;490.000;524.000;492.000;523.000;484.000;377.000;426.000;387.000;360.000;420.000;422.000;433.000;453.000;374.000;317.000;378.000;321.000;388.000;355.000;367.000;370.000;363.000;391.000;379.000;458.000;468.000;402.000;406.000;345.000;385.000;360.000;368.000;388.000;420.000;378.000;351.000;380.000;326.000;427.000;303.000;417.000;359.000;413.000;307.000;479.000;357.000;234.000;253.000;370.000;301.000;347.000;345.000;351.000;375.000;393.000;369.000;331.000;363.000;314.000;276.000;370.000;334.000;276.000;355.000;391.000;243.000;321.000;330.000;275.000;353.000;361.000;266.000;337.000;401.000;363.000;273.000;262.000;315.000;362.000;324.000;355.000;292.000;379.000;343.000;262.000;302.000;268.000;306.000;310.000;301.000;341.000;301.000;324.000;287.000;331.000;334.000;282.000;371.000;273.000;286.000;311.000;286.000;325.000;329.000;320.000;314.000;359.000;363.000;235.000;223.000;303.000;260.000;330.000;351.000;353.000;322.000;259.000;330.000;323.000;299.000;270.000;342.000;213.000;264.000;336.000;295.000;302.000;311.000;176.000;343.000;253.000;259.000;293.000;266.000;281.000;290.000;283.000;276.000;295.000;298.000;296.000;304.000;264.000;288.000;295.000;248.000;208.000;238.000;302.000;246.000;368.000;281.000;355.000;341.000;256.000;255.000;255.000;271.000;353.000;192.000;232.000;225.000;217.000;241.000;249.000;263.000;245.000;243.000;280.000;269.000;302.000;366.000;328.000;274.000;293.000;258.000;280.000;252.000;251.000;207.000;290.000;256.000;286.000;245.000;216.000;253.000;229.000;238.000;216.000;228.000;258.000;174.000;244.000;263.000;170.000;286.000;240.000;304.000;289.000;252.000;273.000;219.000;216.000;257.000;218.000;241.000;286.000;244.000;223.000;191.000;285.000;171.000;264.000;263.000;206.000;231.000;180.000;242.000;218.000;216.000;199.000;231.000;271.000;154.000;252.000;272.000;214.000;254.000;230.000;275.000;286.000;212.000;195.000;238.000;192.000;294.000;219.000;210.000;319.000;305.000;290.000;246.000;261.000;177.000;230.000;224.000;158.000;143.000;236.000;201.000;160.000;251.000;146.000;265.000;189.000;257.000;198.000;239.000;242.000;207.000;263.000;320.000;152.000;237.000;198.000;262.000;244.000;202.000;161.000;177.000;211.000;172.000;162.000;192.000;242.000;169.000;215.000;192.000;172.000;217.000;306.000;188.000;253.000;168.000;291.000;221.000;182.000;179.000;240.000;162.000;262.000;116.000;240.000;140.000;198.000;261.000;172.000;269.000;154.000;241.000;173.000;229.000;243.000;213.000;228.000;163.000;171.000;270.000;153.000;178.000;238.000;247.000;190.000;230.000;200.000;179.000;192.000;312.000;77.000;140.000;227.000;179.000;207.000;138.000;149.000;253.000;145.000;172.000;154.000;179.000;128.000;153.000;173.000;148.000;259.000;150.000;137.000;191.000;157.000;241.000;202.000;120.000;191.000;130.000;189.000;140.000;140.000;285.000;208.000;156.000;58.000;147.000;257.000;227.000;105.000;135.000;119.000;166.000;162.000;104.000;175.000;244.000;113.000;195.000;217.000;231.000;174.000;190.000;168.000;181.000;88.000;201.000;201.000;185.000;126.000;159.000;160.000;190.000;77.000;123.000;202.000;193.000;180.000;136.000;115.000;187.000;149.000;152.000;108.000;198.000;145.000;186.000;180.000;200.000;179.000;135.000;145.000;120.000;125.000;156.000;237.000;141.000;159.000;105.000;149.000;114.000;216.000;108.000;138.000;174.000;245.000;157.000;183.000;187.000;119.000;150.000;165.000;147.000;158.000;182.000;174.000;111.000;150.000;172.000;128.000;101.000;208.000;164.000;174.000;137.000;106.000;128.000;218.000;68.000;153.000;114.000;141.000;116.000;119.000;144.000;138.000;121.000;167.000;29.000;174.000;147.000;140.000;164.000;89.000;114.000;94.000;129.000;117.000;133.000;162.000;177.000;148.000;72.000;134.000;122.000;146.000;110.000;10.000;86.000;82.000;148.000;99.000;140.000;150.000;138.000;-85.000;-760.000;152.000;88.000;143.000;169.000;185.000;130.000;152.000;180.000;141.000;159.000;193.000;108.000;188.000;161.000;150.000;140.000;148.000;112.000;103.000;88.000;213.000;180.000;78.000;127.000;182.000;130.000;168.000;144.000;143.000;211.000;246.000;92.000;305.000;109.000;181.000;206.000;244.000;268.000;224.000;169.000;189.000;153.000;132.000;199.000;208.000;245.000;201.000;201.000;261.000;217.000;197.000;116.000;216.000;193.000;205.000;163.000;220.000;99.000;166.000;158.000;208.000;240.000;167.000;243.000;179.000;202.000;195.000;195.000;223.000;216.000;175.000;215.000;198.000;220.000;237.000;251.000;163.000;201.000;128.000;234.000;204.000;106.000;235.000;202.000;207.000;167.000;222.000;233.000;150.000;180.000;260.000;204.000;273.000;241.000;213.000;212.000;207.000;225.000;213.000;211.000;212.000;235.000;154.000;190.000;236.000;189.000;258.000;271.000;206.000;194.000;264.000;165.000;288.000;167.000;226.000;236.000;217.000;325.000;316.000;263.000;269.000;216.000;334.000;191.000;293.000;292.000;282.000;245.000;278.000;309.000;306.000;175.000;238.000;241.000;296.000;161.000;292.000;260.000;238.000;268.000;192.000;236.000;220.000;184.000;197.000;223.000;293.000;181.000;169.000;226.000;220.000;266.000;189.000;238.000;141.000;215.000;214.000;233.000;167.000;186.000;200.000;232.000;218.000;166.000;197.000;194.000;194.000;168.000;186.000;179.000;255.000;147.000;185.000;184.000;149.000;164.000;161.000;273.000;181.000;126.000;160.000;234.000;159.000;157.000;137.000;192.000;169.000;174.000;188.000;168.000;158.000;153.000;201.000;151.000;159.000;151.000;232.000;202.000;188.000;232.000;248.000;248.000;209.000;179.000;154.000;250.000;121.000;184.000;207.000;137.000;231.000;214.000;160.000;112.000;159.000;199.000;151.000;193.000;189.000;155.000;216.000;201.000;139.000;167.000;194.000;198.000;195.000;178.000;136.000;135.000;193.000;157.000;148.000;193.000;110.000;189.000;95.000;216.000;150.000;159.000;102.000;118.000;192.000;66.000;159.000;220.000;110.000;161.000;99.000;34.000;162.000;77.000;106.000;92.000;121.000;170.000;57.000;124.000;67.000;70.000;68.000;134.000;82.000;96.000;47.000;96.000;80.000;143.000;80.000;84.000;105.000;122.000;43.000;120.000;102.000;60.000;
-50.000;50.000;-40.495;-39.924;-39.353;-38.782;-38.211;-37.640;-37.069;-36.498;-35.927;-35.356;-34.785;-34.215;-33.644;-33.073;-32.503;-31.932;-31.362;-30.791;-30.221;-29.651;-29.080;-28.510;-27.940;-27.370;-26.800;-26.230;-25.660;-25.090;-24.520;-23.950;-23.380;-22.810;-22.241;-21.671;-21.101;-20.532;-19.962;-19.393;-18.823;-18.254;-17.685;-17.116;-16.546;-15.977;-15.408;-14.839;-14.270;-13.701;-13.132;-12.563;-11.994;-11.426;-10.857;-10.288;-9.719;-9.151;-8.582;-8.014;-7.445;-6.877;-6.309;-5.740;-5.172;-4.604;-4.036;-3.468;-2.900;-2.332;-1.764;-1.196;-0.628;-0.060;0.508;1.076;1.643;2.211;2.778;3.346;3.913;4.481;5.048;5.616;6.183;6.750;7.317;7.884;8.452;9.019;9.586;10.153;10.719;11.286;11.853;12.420;12.987;13.553;14.120;14.686;15.253;15.819;16.386;16.952;17.519;18.085;18.651;19.217;19.783;20.349;20.915;21.481;22.047;22.613;23.179;23.745;24.311;24.876;25.442;26.008;26.573;27.139;27.704;28.269;28.835;29.400;29.965;30.531;31.096;31.661;32.226;32.791;33.356;33.921;34.486;35.051;35.615;36.180;36.745;37.309;37.874;38.439;39.003;39.567;40.132;40.696;41.261;41.825;42.389;42.953;43.517;44.081;44.645;45.209;45.773;46.337;46.901;47.465;48.028;48.592;49.156;49.719;50.283;50.846;51.410;51.973;52.536;53.100;53.663;54.226;54.789;55.352;55.915;56.478;57.041;57.604;58.167;58.730;59.293;59.855;60.418;60.981;61.543;62.106;62.668;63.231;63.793;64.355;64.918;65.480;66.042;66.604;67.166;67.728;68.290;68.852;69.414;69.976;70.538;71.099;71.661;72.223;72.784;73.346;73.907;74.469;75.030;75.592;76.153;76.714;77.275;77.837;78.398;78.959;79.520;80.081;80.642;81.203;81.763;82.324;82.885;83.446;84.006;84.567;85.127;85.688;86.248;86.809;87.369;87.929;88.490;89.050;89.610;90.170;90.730;91.290;91.850;92.410;92.970;93.530;94.090;94.649;95.209;95.769;96.328;96.888;97.447;98.007;98.566;99.125;99.685;100.244;100.803;101.362;101.921;102.480;103.039;103.598;104.157;104.716;105.275;105.834;106.393;106.951;107.510;108.068;108.627;109.185;109.744;110.302;110.861;111.419;111.977;112.535;113.093;113.651;114.210;114.768;115.325;115.883;116.441;116.999;117.557;118.115;118.672;119.230;119.787;120.345;120.902;121.460;122.017;122.574;123.132;123.689;124.246;124.803;125.360;125.917;126.474;127.031;127.588;128.145;128.702;129.259;129.815;130.372;130.929;131.485;132.042;132.598;133.155;133.711;134.267;134.824;135.380;135.936;136.492;137.048;137.604;138.160;138.716;139.272;139.828;140.384;140.939;141.495;142.051;142.606;143.162;143.717;144.273;144.828;145.384;145.939;146.494;147.049;147.605;148.160;148.715;149.270;149.825;150.380;150.935;151.489;152.044;152.599;153.154;153.708;154.263;154.817;155.372;155.926;156.481;157.035;157.590;158.144;158.698;159.252;159.806;160.360;160.914;161.468;162.022;162.576;163.130;163.684;164.237;164.791;165.345;165.898;166.452;167.005;167.559;168.112;168.666;169.219;169.772;170.325;170.879;171.432;171.985;172.538;173.091;173.644;174.197;174.749;175.302;175.855;176.408;176.960;177.513;178.065;178.618;179.170;179.723;180.275;180.827;181.380;181.932;182.484;183.036;183.588;184.140;184.692;185.244;185.796;186.348;186.899;187.451;188.003;188.554;189.106;189.658;190.209;190.761;191.312;191.863;192.415;192.966;193.517;194.068;194.619;195.170;195.721;196.272;196.823;197.374;197.925;198.476;199.026;199.577;200.128;200.678;201.229;201.779;202.330;202.880;203.430;203.981;204.531;205.081;205.631;206.181;206.731;207.281;207.831;208.381;208.931;209.481;210.031;210.581;211.130;211.680;212.229;212.779;213.328;213.878;214.427;214.977;215.526;216.075;216.624;217.173;217.723;218.272;218.821;219.370;219.918;220.467;221.016;221.565;222.114;222.662;223.211;223.760;224.308;224.857;225.405;225.953;226.502;227.050;227.598;228.146;228.695;229.243;229.791;230.339;230.887;231.435;231.982;232.530;233.078;233.626;234.173;234.721;235.269;235.816;236.364;236.911;237.458;238.006;238.553;239.100;239.648;240.195;240.742;241.289;241.836;242.383;242.930;243.477;244.023;244.570;245.117;245.663;246.210;246.757;247.303;247.850;248.396;248.943;249.489;250.035;250.581;251.128;251.674;252.220;252.766;253.312;253.858;254.404;254.950;255.495;256.041;256.587;257.133;257.678;258.224;258.769;259.315;259.860;260.406;260.951;261.496;262.041;262.587;263.132;263.677;264.222;264.767;265.312;265.857;266.402;266.947;267.491;268.036;268.581;269.125;269.670;270.214;270.759;271.303;271.848;272.392;272.936;273.481;274.025;274.569;275.113;275.657;276.201;276.745;277.289;277.833;278.377;278.920;279.464;280.008;280.551;281.095;281.639;282.182;282.725;283.269;283.812;284.355;284.899;285.442;285.985;286.528;287.071;287.614;288.157;288.700;289.243;289.786;290.329;290.871;291.414;291.957;292.499;293.042;293.584;294.127;294.669;295.211;295.754;296.296;296.838;297.380;297.922;298.464;299.006;299.548;300.090;300.632;301.174;301.716;302.257;302.799;303.341;303.882;304.424;304.965;305.507;306.048;306.590;307.131;307.672;308.213;308.755;309.296;309.837;310.378;310.919;311.460;312.000;312.541;313.082;313.623;314.163;314.704;315.245;315.785;316.326;316.866;317.407;317.947;318.487;319.027;319.568;320.108;320.648;321.188;321.728;322.268;322.808;323.348;323.888;324.427;324.967;325.507;326.046;326.586;327.126;327.665;328.205;328.744;329.283;329.823;330.362;330.901;331.440;331.979;332.518;333.058;333.596;334.135;334.674;335.213;335.752;336.291;336.829;337.368;337.907;338.445;338.984;339.522;340.061;340.599;341.137;341.675;342.214;342.752;343.290;343.828;344.366;344.904;345.442;345.980;346.518;347.056;347.593;348.131;348.669;349.206;349.744;350.281;350.819;351.356;351.894;352.431;352.968;353.505;354.043;354.580;355.117;355.654;356.191;356.728;357.265;357.801;358.338;358.875;359.412;359.948;360.485;361.022;361.558;362.095;362.631;363.167;363.704;364.240;364.776;365.312;365.848;366.385;366.921;367.457;367.993;368.528;369.064;369.600;370.136;370.672;371.207;371.743;372.278;372.814;373.349;373.885;374.420;374.956;375.491;376.026;376.561;377.096;377.632;378.167;378.702;379.237;379.771;380.306;380.841;381.376;381.911;382.445;382.980;383.515;384.049;384.584;385.118;385.652;386.187;386.721;387.255;387.789;388.324;388.858;389.392;389.926;390.460;390.994;391.528;392.061;392.595;393.129;393.663;394.196;394.730;395.263;395.797;396.330;396.864;397.397;397.930;398.464;398.997;399.530;400.063;400.596;401.129;401.662;402.195;402.728;403.261;403.794;404.326;404.859;405.392;405.924;406.457;406.989;407.522;408.054;408.586;409.119;409.651;410.183;410.715;411.248;411.780;412.312;412.844;413.376;413.908;414.439;414.971;415.503;416.035;416.566;417.098;417.629;418.161;418.692;419.224;419.755;420.287;420.818;421.349;421.880;422.411;422.942;423.473;424.004;424.535;425.066;425.597;426.128;426.659;427.189;427.720;428.251;428.781;429.312;429.842;430.373;430.903;431.433;431.964;432.494;433.024;433.554;434.084;434.614;435.145;435.674;436.204;436.734;437.264;437.794;438.324;438.853;439.383;439.912;440.442;440.971;441.501;442.030;442.560;443.089;443.618;444.147;444.677;445.206;445.735;446.264;446.793;447.322;447.851;448.379;448.908;449.437;449.966;450.494;451.023;451.551;452.080;452.608;453.137;453.665;454.193;454.722;455.250;455.778;456.306;456.834;457.362;457.890;458.418;458.946;459.474;460.002;460.530;461.057;461.585;462.112;462.640;463.168;463.695;464.222;464.750;465.277;465.804;466.332;466.859;467.386;467.913;468.440;468.967;469.494;470.021;470.548;471.075;471.601;472.128;472.655;473.181;473.708;474.235;474.761;475.287;475.814;476.340;476.866;477.393;477.919;478.445;478.971;479.497;480.023;480.549;481.075;481.601;482.127;482.653;483.178;483.704;484.230;484.755;485.281;485.806;486.332;486.857;487.383;487.908;488.433;488.958;489.483;490.009;490.534;491.059;491.584;492.109;492.633;493.158;493.683;494.208;494.733;495.257;495.782;496.306;496.831;497.355;497.880;498.404;498.928;499.453;499.977;500.501;501.025;501.549;502.073;502.597;503.121;503.645;504.169;504.693;505.217;505.740;506.264;506.788;507.311;507.835;508.358;508.882;509.405;509.928;510.452;510.975;511.498;512.021;512.544;513.068;513.591;514.114;514.636;515.159;515.682;516.205;516.728;517.250;517.773;518.296;518.818;519.341;519.863;520.385;520.908;521.430;521.952;522.475;522.997;523.519;524.041;524.563;525.085;525.607;526.129;526.651;527.172;527.694;528.216;528.738;529.259;529.781;530.302;530.824;531.345;531.867;532.388;532.909;533.430;533.952;534.473;534.994;535.515;536.036;536.557;537.078;537.599;538.119;538.640;539.161;539.682;540.202;540.723;541.243;541.764;542.284;542.805;543.325;543.845;544.366;544.886;545.406;545.926;546.446;546.966;547.486;548.006;548.526;549.046;549.566;550.085;550.605;551.125;551.644;552.164;552.683;553.203;553.722;554.242;554.761;555.280;555.799;556.319;556.838;557.357;557.876;558.395;558.914;559.433;559.951;560.470;560.989;561.508;562.026;562.545;563.064;563.582;564.101;564.619;565.137;565.656;566.174;566.692;567.211;567.729;568.247;568.765;569.283;569.801;570.319;570.837;571.354;571.872;572.390;572.908;573.425;573.943;574.460;574.978;575.495;576.013;576.530;577.048;577.565;578.082;578.599;579.116;579.633;580.150;580.667;581.184;581.701;582.218;582.735;583.252;583.768;584.285;584.802;585.318;585.835;586.351;586.868;587.384;587.900;588.417;588.933;589.449;589.965;590.481;590.997;591.513;592.029;592.545;593.061;593.577;594.093;594.609;595.124;595.640;596.155;596.671;597.186;597.702;598.217;598.733;599.248;599.763;600.278;600.794;601.309;601.824;602.339;602.854;603.369;603.884;604.399;604.913;605.428;605.943;606.457;606.972;607.487;608.001;608.516;609.030;609.544;610.059;610.573;611.087;611.602;612.116;612.630;613.144;613.658;614.172;614.686;615.200;615.713;616.227;616.741;617.255;617.768;618.282;618.795;619.309;619.822;620.336;620.849;621.362;621.876;622.389;622.902;623.415;623.928;624.441;624.954;625.467;625.980;626.493;627.006;627.519;628.031;628.544;629.057;629.569;630.082;630.594;631.107;631.619;632.131;632.644;633.156;633.668;634.180;634.692;635.204;635.716;636.228;636.740;637.252;637.764;638.276;638.787;639.299;639.811;640.322;640.834;641.345;641.857;642.368;642.880;643.391;643.902;644.413;644.925;645.436;645.947;646.458;646.969;647.480;647.991;648.502;649.012;649.523;650.034;650.545;651.055;651.566;652.076;652.587;653.097;653.608;654.118;654.628;655.138;655.649;656.159;656.669;657.179;657.689;658.199;658.709;659.219;659.729;660.238;660.748;661.258;661.767;662.277;662.787;663.296;663.806;664.315;664.824;665.334;665.843;666.352;666.861;667.371;667.880;668.389;668.898;669.407;669.916;670.424;670.933;671.442;671.951;672.459;672.968;673.477;673.985;674.494;675.002;675.510;676.019;676.527;677.035;677.544;678.052;678.560;679.068;679.576;680.084;680.592;681.100;681.608;682.115;682.623;683.131;683.639;684.146;684.654;685.161;685.669;686.176;686.683;687.191;687.698;688.205;688.713;689.220;689.727;690.234;690.741;691.248;691.755;692.262;692.768;693.275;693.782;694.289;694.795;695.302;695.808;696.315;696.821;697.328;697.834;698.340;698.847;699.353;699.859;700.365;700.871;701.377;701.883;702.389;702.895;703.401;703.907;704.413;704.918;705.424;705.930;706.435;706.941;707.446;707.952;708.457;708.962;709.468;709.973;710.478;710.983;711.488;711.994;712.499;713.004;713.508;714.013;714.518;715.023;715.528;716.032;716.537;717.042;717.546;718.051;718.555;719.060;719.564;720.068;720.573;721.077;721.581;722.085;722.589;723.093;723.597;724.101;724.605;725.109;725.613;726.117;726.620;727.124;727.628;728.131;728.635;729.138;729.642;730.145;730.649;731.152;731.655;732.159;732.662;733.165;733.668;734.171;734.674;735.177;735.680;736.183;736.685;737.188;737.691;738.194;738.696;739.199;739.701;740.204;740.706;741.209;741.711;742.213;742.716;743.218;743.720;744.222;744.724;745.226;745.728;746.230;746.732;747.234;747.736;748.237;748.739;749.241;749.742;750.244;750.745;751.247;751.748;752.250;752.751;753.252;753.754;754.255;754.756;755.257;755.758;756.259;756.760;757.261;757.762;758.263;758.764;759.264;759.765;760.266;760.766;761.267;761.767;762.268;762.768;763.268;763.769;764.269;764.769;765.270;765.770;766.270;766.770;767.270;767.770;768.270;768.770;769.269;769.769;770.269;770.769;771.268;771.768;772.267;772.767;773.266;773.766;774.265;774.764;775.264;775.763;776.262;776.761;777.260;777.759;778.258;778.757;779.256;779.755;780.254;780.753;781.251;781.750;782.249;782.747;783.246;783.744;784.243;784.741;785.239;785.738;786.236;786.734;787.232;787.730;788.228;788.726;789.224;789.722;790.220;790.718;791.216;791.714;792.211;792.709;793.207;793.704;794.202;794.699;795.197;795.694;796.191;796.689;797.186;797.683;798.180;798.677;799.174;799.671;800.168;800.665;801.162;801.659;802.156;802.653;803.149;803.646;804.143;804.639;805.136;805.632;806.129;806.625;807.121;807.618;808.114;808.610;809.106;809.602;810.098;810.594;811.090;811.586;812.082;812.578;813.074;813.569;814.065;814.561;815.056;815.552;816.047;816.543;817.038;817.534;818.029;818.524;819.019;819.515;820.010;820.505;821.000;821.495;821.990;822.485;822.980;823.474;823.969;824.464;824.959;825.453;825.948;826.442;826.937;827.431;827.926;828.420;828.914;829.409;829.903;830.397;830.891;831.385;831.879;832.373;832.867;833.361;833.855;834.349;834.843;835.336;835.830;836.324;836.817;837.311;837.804;838.298;838.791;839.285;839.778;840.271;840.764;841.258;841.751;842.244;842.737;843.230;843.723;844.216;844.708;845.201;845.694;846.187;846.679;847.172;847.665;848.157;848.650;849.142;849.634;850.127;850.619;851.111;851.604;852.096;852.588;853.080;853.572;854.064;854.556;855.048;855.540;856.031;856.523;857.015;857.507;857.998;858.490;858.981;859.473;859.964;860.456;860.947;861.438;861.930;862.421;862.912;863.403;863.894;864.385;864.876;865.367;865.858;866.349;866.840;867.330;867.821;868.312;868.802;869.293;869.783;870.274;870.764;871.255;871.745;872.235;872.726;873.216;873.706;874.196;874.686;875.176;875.666;876.156;876.646;877.136;877.626;878.115;878.605;879.095;879.584;880.074;880.563;881.053;881.542;882.032;882.521;883.010;883.500;883.989;884.478;884.967;885.456;885.945;886.434;886.923;887.412;887.901;888.390;888.878;889.367;889.856;890.344;890.833;891.321;891.810;892.298;892.787;893.275;893.763;894.252;894.740;895.228;895.716;896.204;896.692;897.180;897.668;898.156;898.644;899.132;899.619;900.107;900.595;901.082;901.570;902.057;902.545;903.032;903.520;904.007;904.494;904.981;905.469;905.956;906.443;906.930;907.417;907.904;908.391;908.878;909.365;909.851;910.338;910.825;911.312;911.798;912.285;912.771;913.258;913.744;914.231;914.717;915.203;915.689;916.176;916.662;917.148;917.634;918.120;918.606;919.092;919.578;920.064;920.549;921.035;921.521;922.006;922.492;922.978;923.463;923.949;924.434;924.919;925.405;925.890;926.375;926.861;927.346;927.831;928.316;928.801;929.286;929.771;930.256;930.741;931.225;931.710;932.195;932.679;933.164;933.649;934.133;934.618;935.102;935.586;936.071;936.555;937.039;937.524;938.008;938.492;938.976;939.460;939.944;940.428;940.912;941.396;941.879;942.363;942.847;943.330;943.814;944.298;944.781;945.265;945.748;946.231;946.715;947.198;947.681;948.165;948.648;949.131;949.614;950.097;950.580;951.063;951.546;952.029;952.511;952.994;953.477;953.959;954.442;954.925;955.407;955.890;956.372;956.854;957.337;957.819;958.301;958.784;959.266;959.748;960.230;960.712;961.194;961.676;962.158;962.640;963.121;963.603;964.085;964.567;965.048;965.530;966.011;966.493;966.974;967.456;967.937;968.418;968.900;969.381;969.862;970.343;970.824;971.305;971.786;972.267;972.748;973.229;973.710;974.190;974.671;975.152;975.632;976.113;976.594;977.074;977.555;978.035;978.515;978.996;979.476;979.956;980.436;980.916;981.396;981.876;982.356;982.836;983.316;983.796;984.276;984.756;985.235;985.715;986.195;986.674;987.154;987.633;988.113;988.592;989.072;989.551;990.030;990.509;990.989;991.468;991.947;992.426;992.905;993.384;993.863;994.342;994.820;995.299;995.778;996.257;996.735;997.214;997.692;998.171;998.649;999.128;999.606;1000.085;1000.563;1001.041;1001.519;1001.997;1002.475;1002.953;1003.432;1003.909;1004.387;1004.865;1005.343;1005.821;1006.299;1006.776;1007.254;1007.732;1008.209;1008.687;1009.164;1009.641;1010.119;1010.596;1011.073;1011.551;1012.028;1012.505;1012.982;1013.459;1013.936;1014.413;1014.890;1015.367;1015.844;1016.321;1016.797;1017.274;1017.751;1018.227;1018.704;1019.180;1019.657;1020.133;1020.610;1021.086;1021.562;1022.039;1022.515;1022.991;1023.467;1023.943;1024.419;1024.895;1025.371;1025.847;1026.323;1026.799;1027.274;1027.750;1028.226;1028.701;1029.177;1029.653;
-50.000;50.000;35.000;-29.000;86.000;106.000;82.000;118.000;20.000;31.000;113.000;126.000;32.000;-8.000;98.000;95.000;52.000;91.000;35.000;76.000;66.000;122.000;57.000;7.000;26.000;91.000;59.000;47.000;77.000;117.000;32.000;92.000;76.000;31.000;56.000;70.000;61.000;116.000;113.000;15.000;117.000;35.000;106.000;57.000;95.000;140.000;104.000;102.000;33.000;43.000;160.000;9.000;62.000;57.000;80.000;-7.000;65.000;18.000;54.000;156.000;108.000;155.000;92.000;95.000;101.000;36.000;150.000;72.000;92.000;171.000;4.000;83.000;149.000;60.000;99.000;93.000;131.000;57.000;87.000;64.000;121.000;129.000;121.000;145.000;210.000;119.000;134.000;76.000;46.000;121.000;82.000;121.000;139.000;96.000;85.000;66.000;91.000;98.000;45.000;137.000;148.000;40.000;118.000;112.000;123.000;135.000;86.000;117.000;83.000;149.000;205.000;142.000;376.000;448.000;528.000;502.000;346.000;326.000;143.000;163.000;74.000;158.000;171.000;72.000;85.000;83.000;156.000;146.000;133.000;60.000;70.000;71.000;26.000;69.000;137.000;43.000;41.000;197.000;146.000;51.000;78.000;93.000;148.000;60.000;62.000;154.000;74.000;142.000;81.000;83.000;94.000;-14.000;128.000;148.000;115.000;66.000;50.000;73.000;86.000;187.000;47.000;43.000;120.000;57.000;90.000;56.000;75.000;5.000;112.000;57.000;107.000;124.000;174.000;16.000;84.000;27.000;124.000;130.000;112.000;56.000;76.000;129.000;-50.000;94.000;67.000;127.000;149.000;154.000;30.000;73.000;158.000;152.000;24.000;63.000;27.000;96.000;114.000;111.000;135.000;117.000;69.000;70.000;27.000;84.000;74.000;125.000;33.000;122.000;69.000;48.000;100.000;54.000;121.000;140.000;91.000;83.000;69.000;71.000;101.000;70.000;0.000;148.000;98.000;106.000;98.000;42.000;186.000;59.000;158.000;105.000;59.000;35.000;14.000;48.000;60.000;120.000;98.000;10.000;146.000;106.000;-6.000;127.000;37.000;125.000;72.000;98.000;158.000;122.000;64.000;168.000;56.000;136.000;60.000;192.000;21.000;104.000;55.000;92.000;95.000;108.000;57.000;108.000;6.000;129.000;72.000;84.000;147.000;166.000;72.000;104.000;22.000;21.000;140.000;75.000;49.000;98.000;16.000;187.000;72.000;73.000;131.000;111.000;134.000;98.000;113.000;103.000;135.000;182.000;173.000;121.000;253.000;197.000;156.000;283.000;314.000;303.000;321.000;352.000;322.000;269.000;290.000;320.000;308.000;322.000;288.000;285.000;286.000;261.000;359.000;247.000;360.000;370.000;348.000;338.000;211.000;365.000;283.000;360.000;316.000;262.000;302.000;328.000;306.000;387.000;296.000;381.000;353.000;346.000;315.000;293.000;311.000;357.000;281.000;366.000;362.000;312.000;236.000;316.000;345.000;335.000;366.000;362.000;365.000;315.000;324.000;335.000;315.000;291.000;293.000;396.000;346.000;428.000;298.000;349.000;340.000;375.000;347.000;403.000;304.000;399.000;411.000;325.000;267.000;280.000;314.000;285.000;319.000;277.000;413.000;361.000;311.000;295.000;371.000;362.000;325.000;334.000;372.000;428.000;421.000;310.000;323.000;382.000;405.000;414.000;366.000;355.000;335.000;366.000;382.000;396.000;353.000;454.000;384.000;302.000;378.000;347.000;448.000;393.000;332.000;372.000;422.000;306.000;478.000;349.000;352.000;411.000;414.000;360.000;410.000;334.000;344.000;371.000;305.000;466.000;399.000;429.000;318.000;358.000;336.000;376.000;414.000;447.000;354.000;423.000;423.000;401.000;381.000;385.000;423.000;481.000;415.000;381.000;386.000;415.000;345.000;386.000;466.000;420.000;423.000;465.000;461.000;422.000;453.000;411.000;402.000;490.000;408.000;330.000;444.000;456.000;393.000;429.000;436.000;377.000;445.000;410.000;345.000;362.000;371.000;365.000;435.000;512.000;416.000;422.000;346.000;405.000;413.000;418.000;444.000;428.000;487.000;466.000;370.000;499.000;427.000;401.000;419.000;379.000;452.000;460.000;1985.000;1847.000;553.000;375.000;440.000;446.000;355.000;501.000;471.000;479.000;479.000;520.000;446.000;434.000;462.000;462.000;431.000;479.000;391.000;417.000;385.000;452.000;487.000;601.000;517.000;585.000;512.000;523.000;515.000;476.000;441.000;474.000;446.000;596.000;486.000;479.000;496.000;461.000;481.000;512.000;459.000;510.000;490.000;549.000;500.000;488.000;583.000;559.000;589.000;421.000;500.000;491.000;483.000;510.000;480.000;459.000;489.000;566.000;509.000;499.000;490.000;478.000;533.000;511.000;596.000;509.000;519.000;586.000;476.000;517.000;565.000;559.000;553.000;508.000;531.000;460.000;516.000;519.000;516.000;541.000;521.000;546.000;578.000;625.000;583.000;595.000;583.000;576.000;477.000;505.000;545.000;575.000;574.000;552.000;521.000;653.000;649.000;641.000;669.000;469.000;600.000;486.000;529.000;569.000;561.000;548.000;506.000;609.000;688.000;591.000;697.000;521.000;585.000;603.000;528.000;549.000;554.000;590.000;679.000;612.000;634.000;638.000;700.000;678.000;616.000;635.000;558.000;700.000;585.000;550.000;689.000;675.000;694.000;731.000;700.000;519.000;596.000;648.000;601.000;619.000;758.000;641.000;713.000;695.000;610.000;723.000;747.000;646.000;676.000;740.000;629.000;648.000;649.000;655.000;779.000;731.000;730.000;700.000;735.000;607.000;622.000;581.000;723.000;671.000;791.000;629.000;778.000;661.000;647.000;637.000;673.000;712.000;624.000;658.000;715.000;608.000;736.000;635.000;791.000;640.000;667.000;648.000;608.000;643.000;624.000;590.000;701.000;750.000;708.000;626.000;680.000;724.000;637.000;765.000;605.000;706.000;762.000;719.000;662.000;575.000;770.000;646.000;642.000;699.000;765.000;629.000;755.000;675.000;666.000;732.000;628.000;664.000;713.000;690.000;684.000;614.000;778.000;728.000;597.000;667.000;598.000;669.000;662.000;662.000;639.000;666.000;716.000;700.000;641.000;691.000;682.000;758.000;705.000;600.000;695.000;690.000;670.000;638.000;643.000;733.000;739.000;692.000;678.000;755.000;714.000;751.000;714.000;773.000;609.000;652.000;663.000;719.000;599.000;653.000;698.000;657.000;678.000;699.000;765.000;654.000;695.000;681.000;763.000;773.000;712.000;750.000;646.000;657.000;603.000;738.000;680.000;612.000;667.000;728.000;701.000;710.000;701.000;716.000;686.000;663.000;738.000;706.000;742.000;697.000;660.000;630.000;572.000;588.000;700.000;654.000;733.000;727.000;665.000;648.000;673.000;683.000;665.000;680.000;734.000;704.000;650.000;648.000;675.000;688.000;715.000;656.000;664.000;721.000;646.000;665.000;697.000;723.000;680.000;727.000;694.000;656.000;683.000;650.000;679.000;642.000;671.000;610.000;707.000;612.000;667.000;686.000;715.000;658.000;658.000;717.000;708.000;725.000;719.000;713.000;716.000;750.000;717.000;736.000;697.000;642.000;661.000;664.000;703.000;627.000;693.000;721.000;742.000;558.000;715.000;696.000;634.000;739.000;769.000;757.000;703.000;686.000;613.000;666.000;587.000;737.000;646.000;674.000;665.000;754.000;663.000;690.000;660.000;755.000;741.000;659.000;712.000;710.000;718.000;734.000;766.000;750.000;716.000;674.000;709.000;764.000;739.000;722.000;739.000;742.000;659.000;722.000;754.000;822.000;669.000;819.000;671.000;774.000;770.000;711.000;755.000;713.000;734.000;838.000;730.000;663.000;729.000;821.000;634.000;774.000;711.000;731.000;764.000;814.000;660.000;747.000;826.000;691.000;672.000;698.000;769.000;649.000;737.000;687.000;796.000;690.000;709.000;731.000;788.000;690.000;741.000;668.000;708.000;768.000;698.000;633.000;706.000;742.000;719.000;679.000;683.000;702.000;703.000;707.000;851.000;737.000;724.000;828.000;744.000;834.000;749.000;731.000;721.000;810.000;792.000;855.000;896.000;820.000;780.000;795.000;943.000;855.000;908.000;757.000;824.000;934.000;862.000;998.000;969.000;910.000;904.000;932.000;1022.000;1008.000;1027.000;950.000;1015.000;1030.000;1032.000;1035.000;1016.000;946.000;1094.000;988.000;1035.000;1014.000;1006.000;1087.000;1089.000;1046.000;1140.000;1179.000;1210.000;1095.000;1170.000;1221.000;1320.000;1156.000;1314.000;1336.000;1282.000;1344.000;1430.000;1308.000;1509.000;1459.000;1393.000;1478.000;1609.000;1566.000;1599.000;1656.000;1562.000;1723.000;1623.000;1730.000;1793.000;1852.000;1889.000;1901.000;1989.000;1847.000;2211.000;2151.000;2434.000;1751.000;1459.000;2496.000;2840.000;2947.000;3237.000;3409.000;3647.000;3926.000;4138.000;4556.000;5041.000;5411.000;6114.000;7001.000;7939.000;9044.000;10473.000;12542.000;15040.000;18629.000;23138.000;29436.000;36825.000;44952.000;52981.000;59814.000;66806.000;73655.000;79503.000;83366.000;80183.000;73385.000;63532.000;51498.000;40534.000;31206.000;24230.000;18963.000;15148.000;12521.000;10779.000;9231.000;7988.000;7059.000;6232.000;5795.000;5117.000;4715.000;4226.000;3997.000;3781.000;3535.000;3490.000;3199.000;2929.000;2893.000;2577.000;2553.000;2389.000;2442.000;2310.000;2343.000;2167.000;1985.000;1908.000;1993.000;1860.000;1775.000;1642.000;1611.000;1539.000;1600.000;1498.000;1495.000;1414.000;1336.000;1407.000;1351.000;1196.000;1329.000;1220.000;1172.000;1194.000;1073.000;1116.000;1175.000;1049.000;1123.000;1030.000;1051.000;979.000;960.000;1004.000;978.000;900.000;942.000;951.000;1017.000;910.000;858.000;833.000;864.000;796.000;792.000;840.000;841.000;882.000;773.000;758.000;726.000;849.000;801.000;818.000;695.000;696.000;766.000;719.000;716.000;735.000;678.000;795.000;705.000;680.000;730.000;647.000;749.000;661.000;615.000;772.000;608.000;638.000;595.000;629.000;629.000;587.000;635.000;653.000;665.000;669.000;632.000;714.000;532.000;699.000;666.000;673.000;657.000;505.000;694.000;676.000;641.000;624.000;608.000;638.000;529.000;560.000;583.000;629.000;561.000;570.000;606.000;677.000;589.000;514.000;461.000;559.000;524.000;566.000;479.000;514.000;607.000;660.000;612.000;585.000;560.000;593.000;546.000;607.000;529.000;603.000;584.000;689.000;585.000;583.000;608.000;603.000;657.000;640.000;651.000;555.000;674.000;634.000;532.000;567.000;603.000;601.000;560.000;611.000;616.000;617.000;646.000;647.000;632.000;632.000;595.000;692.000;600.000;725.000;610.000;599.000;585.000;691.000;675.000;698.000;628.000;660.000;679.000;681.000;678.000;594.000;592.000;679.000;646.000;638.000;540.000;665.000;612.000;640.000;567.000;597.000;591.000;612.000;593.000;560.000;681.000;612.000;683.000;630.000;572.000;577.000;570.000;588.000;484.000;645.000;558.000;549.000;550.000;532.000;559.000;624.000;503.000;544.000;538.000;586.000;650.000;548.000;595.000;536.000;505.000;531.000;513.000;481.000;491.000;501.000;539.000;562.000;524.000;550.000;546.000;474.000;632.000;551.000;507.000;460.000;528.000;421.000;463.000;545.000;447.000;442.000;427.000;456.000;465.000;491.000;413.000;-312.000;-850.000;-986.000;-1674.000;-1576.000;160.000;491.000;398.000;478.000;480.000;465.000;310.000;359.000;437.000;328.000;340.000;400.000;341.000;449.000;415.000;306.000;450.000;398.000;360.000;385.000;365.000;308.000;393.000;431.000;323.000;369.000;356.000;280.000;285.000;216.000;291.000;293.000;331.000;269.000;298.000;334.000;293.000;386.000;369.000;325.000;254.000;315.000;271.000;244.000;342.000;266.000;283.000;220.000;378.000;364.000;236.000;313.000;268.000;352.000;326.000;351.000;260.000;333.000;278.000;190.000;312.000;271.000;257.000;328.000;367.000;304.000;289.000;322.000;302.000;278.000;357.000;213.000;291.000;291.000;261.000;267.000;343.000;248.000;263.000;283.000;271.000;244.000;291.000;275.000;251.000;299.000;295.000;282.000;303.000;276.000;256.000;328.000;252.000;259.000;252.000;312.000;296.000;208.000;269.000;292.000;245.000;294.000;167.000;194.000;223.000;197.000;265.000;221.000;281.000;231.000;313.000;179.000;158.000;293.000;269.000;228.000;291.000;230.000;250.000;256.000;156.000;272.000;170.000;150.000;221.000;236.000;204.000;307.000;214.000;207.000;263.000;193.000;209.000;275.000;240.000;189.000;278.000;264.000;221.000;282.000;255.000;170.000;271.000;240.000;247.000;230.000;262.000;208.000;202.000;251.000;173.000;234.000;212.000;230.000;286.000;236.000;192.000;204.000;198.000;248.000;164.000;237.000;219.000;273.000;245.000;241.000;216.000;218.000;222.000;236.000;184.000;268.000;150.000;254.000;183.000;184.000;210.000;245.000;258.000;242.000;219.000;269.000;212.000;140.000;215.000;247.000;125.000;279.000;218.000;206.000;201.000;264.000;144.000;254.000;151.000;257.000;185.000;144.000;195.000;239.000;218.000;194.000;199.000;232.000;198.000;171.000;194.000;209.000;313.000;197.000;293.000;213.000;179.000;199.000;213.000;147.000;200.000;108.000;204.000;337.000;227.000;217.000;126.000;152.000;183.000;188.000;155.000;129.000;172.000;230.000;170.000;199.000;253.000;163.000;219.000;208.000;147.000;242.000;173.000;165.000;198.000;230.000;234.000;185.000;139.000;152.000;229.000;133.000;138.000;227.000;141.000;250.000;261.000;198.000;198.000;248.000;38.000;174.000;166.000;134.000;153.000;254.000;220.000;124.000;166.000;69.000;261.000;139.000;261.000;68.000;222.000;235.000;117.000;110.000;224.000;174.000;153.000;236.000;232.000;149.000;196.000;155.000;134.000;152.000;162.000;148.000;153.000;151.000;191.000;108.000;130.000;178.000;122.000;193.000;147.000;195.000;140.000;259.000;197.000;184.000;142.000;120.000;132.000;271.000;157.000;134.000;133.000;213.000;157.000;139.000;203.000;138.000;161.000;96.000;178.000;139.000;108.000;198.000;106.000;160.000;157.000;119.000;91.000;197.000;211.000;119.000;196.000;154.000;136.000;188.000;216.000;72.000;122.000;226.000;136.000;115.000;120.000;143.000;140.000;108.000;179.000;116.000;107.000;173.000;238.000;101.000;183.000;125.000;161.000;131.000;187.000;195.000;156.000;180.000;108.000;179.000;136.000;143.000;116.000;116.000;199.000;175.000;102.000;117.000;124.000;179.000;145.000;142.000;113.000;107.000;178.000;93.000;113.000;146.000;170.000;128.000;172.000;111.000;163.000;182.000;191.000;93.000;181.000;120.000;165.000;122.000;149.000;90.000;155.000;152.000;71.000;88.000;145.000;126.000;111.000;170.000;179.000;70.000;169.000;114.000;131.000;54.000;184.000;128.000;103.000;99.000;105.000;162.000;84.000;40.000;33.000;115.000;157.000;158.000;136.000;86.000;146.000;160.000;135.000;225.000;66.000;101.000;122.000;120.000;93.000;101.000;119.000;133.000;146.000;136.000;92.000;88.000;139.000;123.000;86.000;184.000;183.000;96.000;138.000;168.000;129.000;101.000;56.000;134.000;159.000;184.000;71.000;149.000;110.000;192.000;80.000;119.000;104.000;170.000;3.000;179.000;94.000;37.000;142.000;126.000;124.000;74.000;58.000;177.000;121.000;123.000;57.000;125.000;169.000;64.000;49.000;108.000;147.000;162.000;138.000;18.000;132.000;81.000;108.000;72.000;97.000;58.000;173.000;-170.000;-759.000;125.000;11.000;124.000;170.000;163.000;97.000;135.000;95.000;39.000;129.000;143.000;107.000;194.000;151.000;120.000;63.000;96.000;167.000;100.000;78.000;189.000;150.000;109.000;97.000;105.000;112.000;147.000;64.000;117.000;123.000;183.000;153.000;177.000;123.000;192.000;160.000;166.000;207.000;180.000;120.000;100.000;122.000;166.000;137.000;65.000;167.000;180.000;129.000;137.000;161.000;143.000;118.000;128.000;153.000;196.000;141.000;129.000;109.000;158.000;133.000;129.000;129.000;78.000;218.000;204.000;114.000;180.000;127.000;110.000;228.000;183.000;159.000;174.000;165.000;227.000;183.000;132.000;158.000;114.000;206.000;99.000;79.000;159.000;195.000;155.000;131.000;171.000;159.000;126.000;119.000;211.000;165.000;120.000;213.000;208.000;159.000;141.000;219.000;159.000;164.000;203.000;152.000;124.000;174.000;159.000;179.000;157.000;147.000;214.000;219.000;118.000;165.000;249.000;133.000;260.000;227.000;221.000;216.000;196.000;207.000;249.000;240.000;217.000;132.000;226.000;183.000;174.000;230.000;239.000;244.000;228.000;167.000;257.000;277.000;157.000;186.000;226.000;176.000;229.000;227.000;201.000;144.000;199.000;225.000;118.000;268.000;214.000;171.000;124.000;176.000;205.000;194.000;246.000;152.000;229.000;134.000;194.000;195.000;190.000;178.000;214.000;189.000;215.000;138.000;166.000;149.000;166.000;131.000;138.000;143.000;183.000;150.000;134.000;196.000;145.000;188.000;155.000;170.000;154.000;118.000;83.000;248.000;255.000;64.000;100.000;187.000;176.000;88.000;132.000;168.000;117.000;188.000;147.000;152.000;146.000;211.000;139.000;149.000;139.000;134.000;183.000;169.000;151.000;170.000;185.000;159.000;106.000;136.000;140.000;117.000;200.000;200.000;126.000;193.000;108.000;77.000;95.000;151.000;61.000;131.000;186.000;138.000;144.000;163.000;129.000;131.000;97.000;208.000;144.000;166.000;117.000;128.000;168.000;96.000;104.000;99.000;151.000;212.000;135.000;105.000;136.000;138.000;131.000;90.000;91.000;205.000;190.000;122.000;12.000;31.000;128.000;114.000;15.000;123.000;68.000;68.000;12.000;101.000;60.000;102.000;11.000;111.000;130.000;44.000;118.000;23.000;98.000;57.000;76.000;76.000;7.000;73.000;66.000;68.000;111.000;55.000;
50.000;-50.000;-40.495;-39.924;-39.353;-38.782;-38.211;-37.640;-37.069;-36.498;-35.927;-35.356;-34.785;-34.215;-33.644;-33.073;-32.503;-31.932;-31.362;-30.791;-30.221;-29.651;-29.080;-28.510;-27.940;-27.370;-26.800;-26.230;-25.660;-25.090;-24.520;-23.950;-23.380;-22.810;-22.241;-21.671;-21.101;-20.532;-19.962;-19.393;-18.823;-18.254;-17.685;-17.116;-16.546;-15.977;-15.408;-14.839;-14.270;-13.701;-13.132;-12.563;-11.994;-11.426;-10.857;-10.288;-9.719;-9.151;-8.582;-8.014;-7.445;-6.877;-6.309;-5.740;-5.172;-4.604;-4.036;-3.468;-2.900;-2.332;-1.764;-1.196;-0.628;-0.060;0.508;1.076;1.643;2.211;2.778;3.346;3.913;4.481;5.048;5.616;6.183;6.750;7.317;7.884;8.452;9.019;9.586;10.153;10.719;11.286;11.853;12.420;12.987;13.553;14.120;14.686;15.253;15.819;16.386;16.952;17.519;18.085;18.651;19.217;19.783;20.349;20.915;21.481;22.047;22.613;23.179;23.745;24.311;24.876;25.442;26.008;26.573;27.139;27.704;28.269;28.835;29.400;29.965;30.531;31.096;31.661;32.226;32.791;33.356;33.921;34.486;35.051;35.615;36.180;36.745;37.309;37.874;38.439;39.003;39.567;40.132;40.696;41.261;41.825;42.389;42.953;43.517;44.081;44.645;45.209;45.773;46.337;46.901;47.465;48.028;48.592;49.156;49.719;50.283;50.846;51.410;51.973;52.536;53.100;53.663;54.226;54.789;55.352;55.915;56.478;57.041;57.604;58.167;58.730;59.293;59.855;60.418;60.981;61.543;62.106;62.668;63.231;63.793;64.355;64.918;65.480;66.042;66.604;67.166;67.728;68.290;68.852;69.414;69.976;70.538;71.099;71.661;72.223;72.784;73.346;73.907;74.469;75.030;75.592;76.153;76.714;77.275;77.837;78.398;78.959;79.520;80.081;80.642;81.203;81.763;82.324;82.885;83.446;84.006;84.567;85.127;85.688;86.248;86.809;87.369;87.929;88.490;89.050;89.610;90.170;90.730;91.290;91.850;92.410;92.970;93.530;94.090;94.649;95.209;95.769;96.328;96.888;97.447;98.007;98.566;99.125;99.685;100.244;100.803;101.362;101.921;102.480;103.039;103.598;104.157;104.716;105.275;105.834;106.393;106.951;107.510;108.068;108.627;109.185;109.744;110.302;110.861;111.419;111.977;112.535;113.093;113.651;114.210;114.768;115.325;115.883;116.441;116.999;117.557;118.115;118.672;119.230;119.787;120.345;120.902;121.460;122.017;122.574;123.132;123.689;124.246;124.803;125.360;125.917;126.474;127.031;127.588;128.145;128.702;129.259;129.815;130.372;130.929;131.485;132.042;132.598;133.155;133.711;134.267;134.824;135.380;135.936;136.492;137.048;137.604;138.160;138.716;139.272;139.828;140.384;140.939;141.495;142.051;142.606;143.162;143.717;144.273;144.828;145.384;145.939;146.494;147.049;147.605;148.160;148.715;149.270;149.825;150.380;150.935;151.489;152.044;152.599;153.154;153.708;154.263;154.817;155.372;155.926;156.481;157.035;157.590;158.144;158.698;159.252;159.806;160.360;160.914;161.468;162.022;162.576;163.130;163.684;164.237;164.791;165.345;165.898;166.452;167.005;167.559;168.112;168.666;169.219;169.772;170.325;170.879;171.432;171.985;172.538;173.091;173.644;174.197;174.749;175.302;175.855;176.408;176.960;177.513;178.065;178.618;179.170;179.723;180.275;180.827;181.380;181.932;182.484;183.036;183.588;184.140;184.692;185.244;185.796;186.348;186.899;187.451;188.003;188.554;189.106;189.658;190.209;190.761;191.312;191.863;192.415;192.966;193.517;194.068;194.619;195.170;195.721;196.272;196.823;197.374;197.925;198.476;199.026;199.577;200.128;200.678;201.229;201.779;202.330;202.880;203.430;203.981;204.531;205.081;205.631;206.181;206.731;207.281;207.831;208.381;208.931;209.481;210.031;210.581;211.130;211.680;212.229;212.779;213.328;213.878;214.427;214.977;215.526;216.075;216.624;217.173;217.723;218.272;218.821;219.370;219.918;220.467;221.016;221.565;222.114;222.662;223.211;223.760;224.308;224.857;225.405;225.953;226.502;227.050;227.598;228.146;228.695;229.243;229.791;230.339;230.887;231.435;231.982;232.530;233.078;233.626;234.173;234.721;235.269;235.816;236.364;236.911;237.458;238.006;238.553;239.100;239.648;240.195;240.742;241.289;241.836;242.383;242.930;243.477;244.023;244.570;245.117;245.663;246.210;246.757;247.303;247.850;248.396;248.943;249.489;250.035;250.581;251.128;251.674;252.220;252.766;253.312;253.858;254.404;254.950;255.495;256.041;256.587;257.133;257.678;258.224;258.769;259.315;259.860;260.406;260.951;261.496;262.041;262.587;263.132;263.677;264.222;264.767;265.312;265.857;266.402;266.947;267.491;268.036;268.581;269.125;269.670;270.214;270.759;271.303;271.848;272.392;272.936;273.481;274.025;274.569;275.113;275.657;276.201;276.745;277.289;277.833;278.377;278.920;279.464;280.008;280.551;281.095;281.639;282.182;282.725;283.269;283.812;284.355;284.899;285.442;285.985;286.528;287.071;287.614;288.157;288.700;289.243;289.786;290.329;290.871;291.414;291.957;292.499;293.042;293.584;294.127;294.669;295.211;295.754;296.296;296.838;297.380;297.922;298.464;299.006;299.548;300.090;300.632;301.174;301.716;302.257;302.799;303.341;303.882;304.424;304.965;305.507;306.048;306.590;307.131;307.672;308.213;308.755;309.296;309.837;310.378;310.919;311.460;312.000;312.541;313.082;313.623;314.163;314.704;315.245;315.785;316.326;316.866;317.407;317.947;318.487;319.027;319.568;320.108;320.648;321.188;321.728;322.268;322.808;323.348;323.888;324.427;324.967;325.507;326.046;326.586;327.126;327.665;328.205;328.744;329.283;329.823;330.362;330.901;331.440;331.979;332.518;333.058;333.596;334.135;334.674;335.213;335.752;336.291;336.829;337.368;337.907;338.445;338.984;339.522;340.061;340.599;341.137;341.675;342.214;342.752;343.290;343.828;344.366;344.904;345.442;345.980;346.518;347.056;347.593;348.131;348.669;349.206;349.744;350.281;350.819;351.356;351.894;352.431;352.968;353.505;354.043;354.580;355.117;355.654;356.191;356.728;357.265;357.801;358.338;358.875;359.412;359.948;360.485;361.022;361.558;362.095;362.631;363.167;363.704;364.240;364.776;365.312;365.848;366.385;366.921;367.457;367.993;368.528;369.064;369.600;370.136;370.672;371.207;371.743;372.278;372.814;373.349;373.885;374.420;374.956;375.491;376.026;376.561;377.096;377.632;378.167;378.702;379.237;379.771;380.306;380.841;381.376;381.911;382.445;382.980;383.515;384.049;384.584;385.118;385.652;386.187;386.721;387.255;387.789;388.324;388.858;389.392;389.926;390.460;390.994;391.528;392.061;392.595;393.129;393.663;394.196;394.730;395.263;395.797;396.330;396.864;397.397;397.930;398.464;398.997;399.530;400.063;400.596;401.129;401.662;402.195;402.728;403.261;403.794;404.326;404.859;405.392;405.924;406.457;406.989;407.522;408.054;408.586;409.119;409.651;410.183;410.715;411.248;411.780;412.312;412.844;413.376;413.908;414.439;414.971;415.503;416.035;416.566;417.098;417.629;418.161;418.692;419.224;419.755;420.287;420.818;421.349;421.880;422.411;422.942;423.473;424.004;424.535;425.066;425.597;426.128;426.659;427.189;427.720;428.251;428.781;429.312;429.842;430.373;430.903;431.433;431.964;432.494;433.024;433.554;434.084;434.614;435.145;435.674;436.204;436.734;437.264;437.794;438.324;438.853;439.383;439.912;440.442;440.971;441.501;442.030;442.560;443.089;443.618;444.147;444.677;445.206;445.735;446.264;446.793;447.322;447.851;448.379;448.908;449.437;449.966;450.494;451.023;451.551;452.080;452.608;453.137;453.665;454.193;454.722;455.250;455.778;456.306;456.834;457.362;457.890;458.418;458.946;459.474;460.002;460.530;461.057;461.585;462.112;462.640;463.168;463.695;464.222;464.750;465.277;465.804;466.332;466.859;467.386;467.913;468.440;468.967;469.494;470.021;470.548;471.075;471.601;472.128;472.655;473.181;473.708;474.235;474.761;475.287;475.814;476.340;476.866;477.393;477.919;478.445;478.971;479.497;480.023;480.549;481.075;481.601;482.127;482.653;483.178;483.704;484.230;484.755;485.281;485.806;486.332;486.857;487.383;487.908;488.433;488.958;489.483;490.009;490.534;491.059;491.584;492.109;492.633;493.158;493.683;494.208;494.733;495.257;495.782;496.306;496.831;497.355;497.880;498.404;498.928;499.453;499.977;500.501;501.025;501.549;502.073;502.597;503.121;503.645;504.169;504.693;505.217;505.740;506.264;506.788;507.311;507.835;508.358;508.882;509.405;509.928;510.452;510.975;511.498;512.021;512.544;513.068;513.591;514.114;514.636;515.159;515.682;516.205;516.728;517.250;517.773;518.296;518.818;519.341;519.863;520.385;520.908;521.430;521.952;522.475;522.997;523.519;524.041;524.563;525.085;525.607;526.129;526.651;527.172;527.694;528.216;528.738;529.259;529.781;530.302;530.824;531.345;531.867;532.388;532.909;533.430;533.952;534.473;534.994;535.515;536.036;536.557;537.078;537.599;538.119;538.640;539.161;539.682;540.202;540.723;541.243;541.764;542.284;542.805;543.325;543.845;544.366;544.886;545.406;545.926;546.446;546.966;547.486;548.006;548.526;549.046;549.566;550.085;550.605;551.125;551.644;552.164;552.683;553.203;553.722;554.242;554.761;555.280;555.799;556.319;556.838;557.357;557.876;558.395;558.914;559.433;559.951;560.470;560.989;561.508;562.026;562.545;563.064;563.582;564.101;564.619;565.137;565.656;566.174;566.692;567.211;567.729;568.247;568.765;569.283;569.801;570.319;570.837;571.354;571.872;572.390;572.908;573.425;573.943;574.460;574.978;575.495;576.013;576.530;577.048;577.565;578.082;578.599;579.116;579.633;580.150;580.667;581.184;581.701;582.218;582.735;583.252;583.768;584.285;584.802;585.318;585.835;586.351;586.868;587.384;587.900;588.417;588.933;589.449;589.965;590.481;590.997;591.513;592.029;592.545;593.061;593.577;594.093;594.609;595.124;595.640;596.155;596.671;597.186;597.702;598.217;598.733;599.248;599.763;600.278;600.794;601.309;601.824;602.339;602.854;603.369;603.884;604.399;604.913;605.428;605.943;606.457;606.972;607.487;608.001;608.516;609.030;609.544;610.059;610.573;611.087;611.602;612.116;612.630;613.144;613.658;614.172;614.686;615.200;615.713;616.227;616.741;617.255;617.768;618.282;618.795;619.309;619.822;620.336;620.849;621.362;621.876;622.389;622.902;623.415;623.928;624.441;624.954;625.467;625.980;626.493;627.006;627.519;628.031;628.544;629.057;629.569;630.082;630.594;631.107;631.619;632.131;632.644;633.156;633.668;634.180;634.692;635.204;635.716;636.228;636.740;637.252;637.764;638.276;638.787;639.299;639.811;640.322;640.834;641.345;641.857;642.368;642.880;643.391;643.902;644.413;644.925;645.436;645.947;646.458;646.969;647.480;647.991;648.502;649.012;649.523;650.034;650.545;651.055;651.566;652.076;652.587;653.097;653.608;654.118;654.628;655.138;655.649;656.159;656.669;657.179;657.689;658.199;658.709;659.219;659.729;660.238;660.748;661.258;661.767;662.277;662.787;663.296;663.806;664.315;664.824;665.334;665.843;666.352;666.861;667.371;667.880;668.389;668.898;669.407;669.916;670.424;670.933;671.442;671.951;672.459;672.968;673.477;673.985;674.494;675.002;675.510;676.019;676.527;677.035;677.544;678.052;678.560;679.068;679.576;680.084;680.592;681.100;681.608;682.115;682.623;683.131;683.639;684.146;684.654;685.161;685.669;686.176;686.683;687.191;687.698;688.205;688.713;689.220;689.727;690.234;690.741;691.248;691.755;692.262;692.768;693.275;693.782;694.289;694.795;695.302;695.808;696.315;696.821;697.328;697.834;698.340;698.847;699.353;699.859;700.365;700.871;701.377;701.883;702.389;702.895;703.401;703.907;704.413;704.918;705.424;705.930;706.435;706.941;707.446;707.952;708.457;708.962;709.468;709.973;710.478;710.983;711.488;711.994;712.499;713.004;713.508;714.013;714.518;715.023;715.528;716.032;716.537;717.042;717.546;718.051;718.555;719.060;719.564;720.068;720.573;721.077;721.581;722.085;722.589;723.093;723.597;724.101;724.605;725.109;725.613;726.117;726.620;727.124;727.628;728.131;728.635;729.138;729.642;730.145;730.649;731.152;731.655;732.159;732.662;733.165;733.668;734.171;734.674;735.177;735.680;736.183;736.685;737.188;737.691;738.194;738.696;739.199;739.701;740.204;740.706;741.209;741.711;742.213;742.716;743.218;743.720;744.222;744.724;745.226;745.728;746.230;746.732;747.234;747.736;748.237;748.739;749.241;749.742;750.244;750.745;751.247;751.748;752.250;752.751;753.252;753.754;754.255;754.756;755.257;755.758;756.259;756.760;757.261;757.762;758.263;758.764;759.264;759.765;760.266;760.766;761.267;761.767;762.268;762.768;763.268;763.769;764.269;764.769;765.270;765.770;766.270;766.770;767.270;767.770;768.270;768.770;769.269;769.769;770.269;770.769;771.268;771.768;772.267;772.767;773.266;773.766;774.265;774.764;775.264;775.763;776.262;776.761;777.260;777.759;778.258;778.757;779.256;779.755;780.254;780.753;781.251;781.750;782.249;782.747;783.246;783.744;784.243;784.741;785.239;785.738;786.236;786.734;787.232;787.730;788.228;788.726;789.224;789.722;790.220;790.718;791.216;791.714;792.211;792.709;793.207;793.704;794.202;794.699;795.197;795.694;796.191;796.689;797.186;797.683;798.180;798.677;799.174;799.671;800.168;800.665;801.162;801.659;802.156;802.653;803.149;803.646;804.143;804.639;805.136;805.632;806.129;806.625;807.121;807.618;808.114;808.610;809.106;809.602;810.098;810.594;811.090;811.586;812.082;812.578;813.074;813.569;814.065;814.561;815.056;815.552;816.047;816.543;817.038;817.534;818.029;818.524;819.019;819.515;820.010;820.505;821.000;821.495;821.990;822.485;822.980;823.474;823.969;824.464;824.959;825.453;825.948;826.442;826.937;827.431;827.926;828.420;828.914;829.409;829.903;830.397;830.891;831.385;831.879;832.373;832.867;833.361;833.855;834.349;834.843;835.336;835.830;836.324;836.817;837.311;837.804;838.298;838.791;839.285;839.778;840.271;840.764;841.258;841.751;842.244;842.737;843.230;843.723;844.216;844.708;845.201;845.694;846.187;846.679;847.172;847.665;848.157;848.650;849.142;849.634;850.127;850.619;851.111;851.604;852.096;852.588;853.080;853.572;854.064;854.556;855.048;855.540;856.031;856.523;857.015;857.507;857.998;858.490;858.981;859.473;859.964;860.456;860.947;861.438;861.930;862.421;862.912;863.403;863.894;864.385;864.876;865.367;865.858;866.349;866.840;867.330;867.821;868.312;868.802;869.293;869.783;870.274;870.764;871.255;871.745;872.235;872.726;873.216;873.706;874.196;874.686;875.176;875.666;876.156;876.646;877.136;877.626;878.115;878.605;879.095;879.584;880.074;880.563;881.053;881.542;882.032;882.521;883.010;883.500;883.989;884.478;884.967;885.456;885.945;886.434;886.923;887.412;887.901;888.390;888.878;889.367;889.856;890.344;890.833;891.321;891.810;892.298;892.787;893.275;893.763;894.252;894.740;895.228;895.716;896.204;896.692;897.180;897.668;898.156;898.644;899.132;899.619;900.107;900.595;901.082;901.570;902.057;902.545;903.032;903.520;904.007;904.494;904.981;905.469;905.956;906.443;906.930;907.417;907.904;908.391;908.878;909.365;909.851;910.338;910.825;911.312;911.798;912.285;912.771;913.258;913.744;914.231;914.717;915.203;915.689;916.176;916.662;917.148;917.634;918.120;918.606;919.092;919.578;920.064;920.549;921.035;921.521;922.006;922.492;922.978;923.463;923.949;924.434;924.919;925.405;925.890;926.375;926.861;927.346;927.831;928.316;928.801;929.286;929.771;930.256;930.741;931.225;931.710;932.195;932.679;933.164;933.649;934.133;934.618;935.102;935.586;936.071;936.555;937.039;937.524;938.008;938.492;938.976;939.460;939.944;940.428;940.912;941.396;941.879;942.363;942.847;943.330;943.814;944.298;944.781;945.265;945.748;946.231;946.715;947.198;947.681;948.165;948.648;949.131;949.614;950.097;950.580;951.063;951.546;952.029;952.511;952.994;953.477;953.959;954.442;954.925;955.407;955.890;956.372;956.854;957.337;957.819;958.301;958.784;959.266;959.748;960.230;960.712;961.194;961.676;962.158;962.640;963.121;963.603;964.085;964.567;965.048;965.530;966.011;966.493;966.974;967.456;967.937;968.418;968.900;969.381;969.862;970.343;970.824;971.305;971.786;972.267;972.748;973.229;973.710;974.190;974.671;975.152;975.632;976.113;976.594;977.074;977.555;978.035;978.515;978.996;979.476;979.956;980.436;980.916;981.396;981.876;982.356;982.836;983.316;983.796;984.276;984.756;985.235;985.715;986.195;986.674;987.154;987.633;988.113;988.592;989.072;989.551;990.030;990.509;990.989;991.468;991.947;992.426;992.905;993.384;993.863;994.342;994.820;995.299;995.778;996.257;996.735;997.214;997.692;998.171;998.649;999.128;999.606;1000.085;1000.563;1001.041;1001.519;1001.997;1002.475;1002.953;1003.432;1003.909;1004.387;1004.865;1005.343;1005.821;1006.299;1006.776;1007.254;1007.732;1008.209;1008.687;1009.164;1009.641;1010.119;1010.596;1011.073;1011.551;1012.028;1012.505;1012.982;1013.459;1013.936;1014.413;1014.890;1015.367;1015.844;1016.321;1016.797;1017.274;1017.751;1018.227;1018.704;1019.180;1019.657;1020.133;1020.610;1021.086;1021.562;1022.039;1022.515;1022.991;1023.467;1023.943;1024.419;1024.895;1025.371;1025.847;1026.323;1026.799;1027.274;1027.750;1028.226;1028.701;1029.177;1029.653;
50.000;-50.000;47.000;28.000;48.000;52.000;144.000;79.000;15.000;74.000;14.000;150.000;65.000;-31.000;23.000;88.000;63.000;51.000;87.000;109.000;85.000;74.000;41.000;-7.000;25.000;89.000;93.000;22.000;74.000;100.000;107.000;24.000;45.000;13.000;141.000;10.000;74.000;130.000;117.000;12.000;80.000;55.000;102.000;83.000;137.000;75.000;90.000;81.000;15.000;111.000;108.000;106.000;86.000;98.000;83.000;46.000;84.000;28.000;146.000;92.000;86.000;136.000;115.000;93.000;97.000;58.000;110.000;50.000;52.000;185.000;37.000;31.000;146.000;66.000;81.000;69.000;132.000;61.000;71.000;123.000;65.000;129.000;83.000;181.000;112.000;131.000;133.000;81.000;45.000;135.000;122.000;186.000;89.000;88.000;65.000;79.000;94.000;84.000;48.000;120.000;84.000;58.000;71.000;216.000;74.000;195.000;62.000;124.000;104.000;155.000;127.000;205.000;372.000;494.000;450.000;479.000;276.000;260.000;58.000;98.000;128.000;113.000;153.000;83.000;104.000;119.000;155.000;130.000;152.000;125.000;111.000;48.000;12.000;31.000;65.000;40.000;38.000;31.000;126.000;24.000;76.000;83.000;86.000;98.000;82.000;107.000;77.000;154.000;14.000;63.000;108.000;2.000;127.000;54.000;171.000;174.000;95.000;72.000;76.000;171.000;97.000;97.000;80.000;29.000;33.000;36.000;121.000;16.000;176.000;74.000;101.000;85.000;136.000;-20.000;79.000;-18.000;113.000;144.000;105.000;31.000;92.000;139.000;19.000;39.000;22.000;46.000;83.000;116.000;78.000;68.000;147.000;82.000;41.000;16.000;38.000;110.000;113.000;129.000;98.000;169.000;113.000;115.000;88.000;82.000;82.000;121.000;15.000;137.000;134.000;38.000;105.000;91.000;88.000;142.000;73.000;124.000;52.000;89.000;51.000;109.000;37.000;160.000;55.000;85.000;-3.000;102.000;111.000;93.000;151.000;115.000;-17.000;95.000;45.000;2.000;55.000;83.000;64.000;46.000;142.000;102.000;33.000;122.000;82.000;57.000;67.000;170.000;126.000;58.000;84.000;164.000;72.000;139.000;95.000;160.000;42.000;155.000;35.000;65.000;119.000;159.000;99.000;83.000;96.000;100.000;33.000;-30.000;104.000;58.000;118.000;45.000;140.000;52.000;122.000;149.000;107.000;130.000;70.000;200.000;20.000;136.000;158.000;117.000;144.000;123.000;127.000;86.000;232.000;238.000;206.000;180.000;302.000;212.000;272.000;272.000;366.000;269.000;405.000;328.000;256.000;247.000;349.000;357.000;257.000;354.000;289.000;306.000;315.000;260.000;394.000;324.000;361.000;427.000;310.000;327.000;260.000;384.000;344.000;330.000;322.000;378.000;322.000;343.000;300.000;367.000;359.000;404.000;316.000;437.000;402.000;312.000;368.000;467.000;304.000;429.000;375.000;427.000;307.000;336.000;364.000;333.000;306.000;329.000;430.000;342.000;361.000;329.000;399.000;343.000;351.000;386.000;413.000;430.000;292.000;460.000;348.000;406.000;453.000;439.000;350.000;457.000;394.000;357.000;378.000;393.000;413.000;304.000;325.000;304.000;360.000;398.000;353.000;454.000;350.000;435.000;462.000;414.000;428.000;570.000;502.000;339.000;432.000;325.000;406.000;415.000;381.000;358.000;358.000;536.000;398.000;543.000;369.000;432.000;394.000;396.000;397.000;441.000;381.000;483.000;397.000;411.000;424.000;399.000;515.000;370.000;370.000;433.000;398.000;501.000;444.000;565.000;415.000;446.000;386.000;453.000;405.000;444.000;393.000;416.000;418.000;396.000;443.000;445.000;411.000;515.000;431.000;467.000;503.000;414.000;412.000;399.000;457.000;362.000;443.000;451.000;394.000;483.000;493.000;453.000;408.000;414.000;408.000;410.000;558.000;434.000;463.000;440.000;456.000;436.000;459.000;515.000;389.000;446.000;547.000;431.000;495.000;514.000;408.000;438.000;468.000;462.000;470.000;562.000;452.000;544.000;396.000;482.000;403.000;460.000;495.000;450.000;611.000;470.000;490.000;553.000;461.000;390.000;402.000;430.000;556.000;507.000;456.000;467.000;462.000;462.000;455.000;496.000;456.000;516.000;500.000;443.000;533.000;470.000;496.000;424.000;516.000;528.000;439.000;494.000;502.000;450.000;505.000;500.000;536.000;549.000;523.000;669.000;517.000;557.000;594.000;515.000;527.000;501.000;504.000;567.000;556.000;515.000;531.000;507.000;528.000;609.000;563.000;561.000;484.000;466.000;534.000;534.000;627.000;632.000;538.000;488.000;597.000;524.000;489.000;490.000;541.000;504.000;587.000;607.000;565.000;483.000;596.000;566.000;507.000;565.000;539.000;619.000;622.000;612.000;584.000;603.000;625.000;602.000;607.000;662.000;648.000;606.000;623.000;563.000;662.000;578.000;541.000;649.000;577.000;622.000;606.000;608.000;598.000;557.000;541.000;610.000;617.000;634.000;630.000;549.000;593.000;635.000;651.000;628.000;623.000;530.000;677.000;603.000;661.000;650.000;589.000;581.000;550.000;613.000;665.000;642.000;676.000;641.000;601.000;598.000;594.000;626.000;612.000;546.000;738.000;664.000;729.000;713.000;816.000;722.000;631.000;670.000;615.000;717.000;626.000;681.000;748.000;750.000;705.000;641.000;676.000;604.000;684.000;714.000;618.000;709.000;728.000;716.000;730.000;691.000;715.000;697.000;768.000;644.000;659.000;724.000;723.000;735.000;705.000;758.000;696.000;824.000;805.000;724.000;737.000;636.000;747.000;746.000;788.000;782.000;767.000;626.000;797.000;715.000;717.000;767.000;748.000;768.000;709.000;740.000;806.000;665.000;749.000;699.000;847.000;665.000;704.000;660.000;715.000;692.000;677.000;687.000;671.000;781.000;745.000;794.000;735.000;758.000;642.000;721.000;730.000;699.000;726.000;750.000;709.000;658.000;770.000;728.000;656.000;765.000;739.000;732.000;751.000;754.000;800.000;718.000;699.000;715.000;732.000;758.000;574.000;628.000;711.000;786.000;638.000;742.000;714.000;718.000;715.000;730.000;751.000;655.000;751.000;726.000;753.000;692.000;642.000;679.000;690.000;664.000;667.000;698.000;707.000;667.000;593.000;713.000;672.000;712.000;727.000;791.000;706.000;717.000;749.000;738.000;755.000;696.000;708.000;760.000;754.000;692.000;659.000;736.000;673.000;723.000;745.000;803.000;722.000;710.000;773.000;657.000;705.000;681.000;806.000;704.000;720.000;659.000;727.000;643.000;631.000;666.000;693.000;705.000;717.000;664.000;723.000;692.000;700.000;696.000;720.000;679.000;662.000;606.000;685.000;682.000;589.000;735.000;683.000;761.000;716.000;637.000;695.000;659.000;636.000;719.000;756.000;747.000;658.000;629.000;743.000;655.000;637.000;730.000;691.000;794.000;651.000;653.000;716.000;758.000;716.000;718.000;749.000;725.000;683.000;705.000;616.000;630.000;641.000;572.000;719.000;651.000;723.000;637.000;671.000;700.000;721.000;673.000;626.000;716.000;703.000;575.000;718.000;729.000;745.000;641.000;767.000;687.000;714.000;760.000;729.000;654.000;711.000;690.000;724.000;718.000;669.000;731.000;731.000;731.000;740.000;711.000;688.000;724.000;717.000;628.000;626.000;735.000;625.000;733.000;732.000;648.000;700.000;696.000;651.000;726.000;652.000;684.000;662.000;729.000;674.000;637.000;830.000;683.000;663.000;654.000;686.000;726.000;646.000;735.000;771.000;637.000;725.000;728.000;751.000;780.000;781.000;778.000;714.000;746.000;767.000;754.000;727.000;756.000;697.000;784.000;711.000;673.000;648.000;739.000;768.000;816.000;690.000;651.000;687.000;712.000;672.000;762.000;733.000;706.000;725.000;692.000;782.000;655.000;759.000;717.000;814.000;709.000;692.000;786.000;742.000;608.000;686.000;715.000;712.000;772.000;714.000;681.000;679.000;677.000;798.000;742.000;708.000;575.000;688.000;757.000;725.000;640.000;711.000;786.000;737.000;677.000;721.000;743.000;736.000;764.000;762.000;887.000;779.000;852.000;716.000;892.000;820.000;827.000;860.000;757.000;766.000;898.000;760.000;896.000;942.000;875.000;830.000;885.000;888.000;971.000;961.000;912.000;830.000;969.000;1010.000;980.000;928.000;1014.000;948.000;933.000;976.000;982.000;1033.000;984.000;995.000;1029.000;1034.000;1119.000;1185.000;1062.000;1057.000;1261.000;1193.000;1119.000;1123.000;1220.000;1294.000;1208.000;1297.000;1237.000;1411.000;1334.000;1339.000;1399.000;1377.000;1365.000;1487.000;1421.000;1525.000;1482.000;1520.000;1600.000;1656.000;1739.000;1668.000;1818.000;1731.000;1997.000;2008.000;1982.000;2233.000;1609.000;1351.000;2301.000;2742.000;2655.000;2952.000;3117.000;3325.000;3583.000;3990.000;4332.000;4565.000;4975.000;5748.000;6325.000;7172.000;8265.000;9514.000;11264.000;13791.000;17052.000;21449.000;27117.000;33728.000;41471.000;48810.000;55684.000;62457.000;68335.000;74187.000;76514.000;74016.000;67372.000;57630.000;46829.000;36736.000;28500.000;21809.000;16781.000;13599.000;11289.000;9737.000;8474.000;7295.000;6491.000;5691.000;5149.000;4817.000;4326.000;3963.000;3524.000;3314.000;3160.000;2914.000;2852.000;2778.000;2582.000;2472.000;2333.000;2179.000;2274.000;2025.000;2058.000;1915.000;1742.000;1823.000;1754.000;1703.000;1541.000;1577.000;1431.000;1464.000;1427.000;1290.000;1355.000;1229.000;1203.000;1194.000;1246.000;1109.000;1131.000;1109.000;1085.000;1067.000;984.000;1021.000;1027.000;950.000;886.000;846.000;892.000;897.000;853.000;827.000;789.000;751.000;851.000;847.000;863.000;763.000;801.000;797.000;723.000;791.000;788.000;765.000;637.000;752.000;728.000;583.000;702.000;704.000;768.000;761.000;659.000;590.000;692.000;610.000;632.000;676.000;620.000;692.000;582.000;1197.000;719.000;480.000;606.000;627.000;571.000;600.000;621.000;582.000;456.000;599.000;597.000;536.000;534.000;566.000;608.000;578.000;528.000;596.000;607.000;630.000;529.000;543.000;579.000;549.000;565.000;505.000;576.000;571.000;2061.000;654.000;494.000;532.000;548.000;465.000;545.000;481.000;449.000;488.000;446.000;499.000;430.000;514.000;414.000;376.000;387.000;461.000;571.000;451.000;494.000;462.000;427.000;495.000;519.000;552.000;491.000;481.000;507.000;485.000;451.000;498.000;465.000;515.000;573.000;522.000;558.000;452.000;498.000;560.000;433.000;534.000;483.000;487.000;472.000;493.000;563.000;491.000;584.000;506.000;508.000;543.000;579.000;503.000;532.000;598.000;587.000;524.000;619.000;559.000;563.000;563.000;474.000;603.000;532.000;541.000;613.000;478.000;591.000;532.000;552.000;505.000;454.000;523.000;501.000;524.000;548.000;494.000;565.000;461.000;582.000;525.000;466.000;482.000;578.000;484.000;485.000;521.000;530.000;463.000;463.000;506.000;489.000;457.000;506.000;436.000;491.000;467.000;436.000;442.000;427.000;422.000;537.000;539.000;461.000;486.000;471.000;433.000;432.000;409.000;418.000;436.000;439.000;506.000;421.000;455.000;476.000;393.000;464.000;448.000;428.000;413.000;479.000;338.000;403.000;467.000;379.000;413.000;295.000;398.000;434.000;360.000;288.000;-286.000;-885.000;-1019.000;-1803.000;-1688.000;117.000;462.000;364.000;318.000;325.000;370.000;287.000;354.000;383.000;296.000;251.000;340.000;281.000;294.000;264.000;309.000;364.000;300.000;295.000;336.000;208.000;287.000;310.000;280.000;261.000;281.000;237.000;195.000;273.000;217.000;243.000;291.000;274.000;200.000;195.000;286.000;182.000;296.000;335.000;243.000;234.000;262.000;196.000;203.000;257.000;264.000;329.000;178.000;276.000;297.000;240.000;283.000;137.000;201.000;211.000;305.000;172.000;292.000;136.000;108.000;247.000;227.000;173.000;169.000;201.000;312.000;226.000;220.000;253.000;246.000;286.000;240.000;215.000;228.000;207.000;267.000;175.000;220.000;254.000;219.000;188.000;220.000;210.000;220.000;218.000;220.000;231.000;230.000;228.000;186.000;156.000;218.000;216.000;256.000;219.000;232.000;212.000;213.000;293.000;207.000;226.000;186.000;191.000;236.000;169.000;229.000;151.000;186.000;137.000;188.000;186.000;175.000;193.000;272.000;177.000;176.000;187.000;187.000;184.000;211.000;226.000;181.000;141.000;86.000;158.000;228.000;147.000;253.000;201.000;100.000;195.000;130.000;180.000;118.000;180.000;174.000;236.000;289.000;189.000;248.000;145.000;104.000;262.000;144.000;187.000;162.000;180.000;199.000;190.000;183.000;172.000;160.000;231.000;189.000;208.000;204.000;163.000;178.000;120.000;202.000;91.000;189.000;128.000;215.000;168.000;184.000;209.000;178.000;84.000;220.000;196.000;165.000;121.000;153.000;186.000;180.000;188.000;221.000;202.000;177.000;161.000;219.000;169.000;124.000;173.000;230.000;117.000;162.000;177.000;199.000;167.000;225.000;103.000;181.000;144.000;156.000;175.000;131.000;148.000;156.000;205.000;122.000;190.000;138.000;107.000;138.000;182.000;138.000;215.000;117.000;159.000;178.000;174.000;200.000;156.000;111.000;167.000;144.000;115.000;244.000;207.000;135.000;137.000;168.000;140.000;133.000;179.000;102.000;193.000;139.000;152.000;148.000;170.000;91.000;172.000;191.000;105.000;178.000;160.000;170.000;192.000;147.000;151.000;172.000;121.000;74.000;177.000;185.000;133.000;188.000;129.000;169.000;241.000;170.000;184.000;198.000;93.000;173.000;141.000;137.000;106.000;175.000;87.000;167.000;127.000;117.000;156.000;123.000;200.000;114.000;147.000;183.000;70.000;101.000;186.000;101.000;147.000;198.000;163.000;148.000;160.000;64.000;86.000;130.000;89.000;183.000;140.000;174.000;94.000;131.000;141.000;137.000;115.000;276.000;118.000;190.000;121.000;131.000;197.000;99.000;145.000;160.000;144.000;121.000;147.000;125.000;141.000;137.000;100.000;104.000;137.000;151.000;153.000;47.000;133.000;138.000;64.000;125.000;109.000;27.000;189.000;69.000;176.000;113.000;194.000;58.000;128.000;225.000;122.000;163.000;148.000;116.000;122.000;130.000;60.000;71.000;151.000;98.000;137.000;131.000;153.000;106.000;115.000;71.000;169.000;80.000;109.000;190.000;114.000;85.000;109.000;88.000;143.000;73.000;80.000;148.000;65.000;180.000;112.000;95.000;155.000;178.000;95.000;113.000;37.000;218.000;140.000;52.000;95.000;114.000;95.000;80.000;135.000;129.000;135.000;59.000;146.000;81.000;129.000;103.000;153.000;114.000;141.000;47.000;168.000;134.000;83.000;169.000;152.000;131.000;123.000;37.000;103.000;135.000;97.000;109.000;93.000;-12.000;97.000;73.000;68.000;48.000;141.000;105.000;145.000;108.000;134.000;100.000;126.000;122.000;31.000;109.000;125.000;114.000;102.000;190.000;64.000;72.000;79.000;146.000;77.000;120.000;113.000;110.000;137.000;138.000;116.000;60.000;105.000;53.000;106.000;42.000;99.000;144.000;53.000;130.000;155.000;116.000;99.000;79.000;131.000;86.000;85.000;135.000;144.000;122.000;35.000;117.000;142.000;143.000;74.000;155.000;117.000;108.000;22.000;136.000;58.000;102.000;138.000;55.000;117.000;65.000;109.000;101.000;41.000;59.000;35.000;130.000;127.000;118.000;18.000;80.000;107.000;172.000;128.000;24.000;59.000;92.000;52.000;80.000;76.000;59.000;160.000;-127.000;-799.000;88.000;43.000;39.000;77.000;129.000;123.000;175.000;62.000;92.000;135.000;99.000;66.000;176.000;115.000;126.000;112.000;138.000;120.000;94.000;88.000;135.000;126.000;83.000;124.000;74.000;130.000;122.000;136.000;137.000;162.000;210.000;129.000;204.000;131.000;116.000;81.000;73.000;210.000;131.000;108.000;81.000;131.000;102.000;127.000;108.000;206.000;102.000;108.000;136.000;208.000;120.000;64.000;63.000;135.000;125.000;145.000;136.000;102.000;67.000;118.000;62.000;207.000;109.000;201.000;197.000;56.000;152.000;144.000;117.000;202.000;122.000;169.000;157.000;126.000;183.000;207.000;143.000;148.000;147.000;122.000;79.000;139.000;136.000;165.000;133.000;104.000;194.000;109.000;162.000;116.000;170.000;118.000;205.000;207.000;203.000;156.000;129.000;150.000;143.000;128.000;101.000;127.000;79.000;143.000;169.000;151.000;155.000;197.000;128.000;163.000;134.000;100.000;212.000;106.000;117.000;150.000;203.000;277.000;155.000;197.000;183.000;121.000;208.000;148.000;190.000;231.000;189.000;211.000;244.000;199.000;126.000;150.000;198.000;183.000;180.000;120.000;194.000;217.000;118.000;170.000;124.000;121.000;224.000;137.000;104.000;136.000;242.000;196.000;73.000;157.000;205.000;162.000;183.000;153.000;115.000;101.000;167.000;161.000;156.000;151.000;173.000;56.000;138.000;125.000;154.000;151.000;197.000;106.000;85.000;112.000;193.000;114.000;124.000;156.000;159.000;214.000;78.000;232.000;137.000;126.000;132.000;177.000;164.000;108.000;118.000;158.000;124.000;105.000;156.000;95.000;61.000;174.000;164.000;102.000;117.000;154.000;148.000;118.000;98.000;115.000;150.000;185.000;94.000;192.000;93.000;142.000;66.000;150.000;150.000;80.000;102.000;96.000;93.000;168.000;152.000;108.000;98.000;173.000;74.000;119.000;155.000;104.000;172.000;130.000;104.000;178.000;195.000;141.000;129.000;149.000;161.000;117.000;103.000;185.000;119.000;110.000;118.000;154.000;157.000;87.000;28.000;112.000;193.000;70.000;123.000;142.000;90.000;137.000;121.000;55.000;124.000;107.000;61.000;49.000;64.000;92.000;49.000;64.000;87.000;91.000;31.000;87.000;132.000;65.000;67.000;43.000;96.000;89.000;120.000;144.000;6.000;65.000;5.000;46.000;121.000;45.000;
